wavelength;0.00 sec;10.00 sec;20.00 sec;30.00 sec;40.00 sec;50.00 sec;60.00 sec;70.00 sec;80.00 sec;90.00 sec;100.00 sec;110.00 sec;120.00 sec;130.00 sec;140.00 sec;150.00 sec;160.00 sec;170.00 sec;180.00 sec;190.00 sec;200.00 sec;210.00 sec;220.00 sec;230.00 sec;240.00 sec;250.00 sec;260.00 sec;270.00 sec;280.00 sec;290.00 sec;300.00 sec;310.00 sec;320.00 sec;330.00 sec;340.00 sec;350.00 sec;360.00 sec;370.00 sec;380.00 sec;390.00 sec;400.00 sec;410.00 sec;420.00 sec;430.00 sec;440.00 sec;450.00 sec;460.00 sec;470.00 sec;480.00 sec;490.00 sec;500.00 sec;510.00 sec;520.00 sec;530.00 sec;540.00 sec;550.00 sec;560.00 sec;570.00 sec;580.00 sec;590.00 sec;600.00 sec
300.000000;0.086241;0.085659;0.085497;0.085107;0.085627;0.085140;0.085294;0.084840;0.084370;0.084558;0.084127;0.084230;0.084182;0.083948;0.083663;0.083869;0.083476;0.082895;0.083213;0.083222;0.082583;0.082898;0.082779;0.082255;0.082634;0.082230;0.082280;0.081704;0.081906;0.081565;0.082213;0.081557;0.081256;0.081549;0.081573;0.081190;0.081057;0.080947;0.080977;0.080128;0.080272;0.080678;0.080525;0.080472;0.080090;0.080543;0.080444;0.079931;0.079982;0.079684;0.079852;0.079716;0.079510;0.079719;0.079576;0.079733;0.079242;0.080151;0.079493;0.079547;0.079407
300.500000;0.087988;0.087885;0.087485;0.087012;0.087450;0.087220;0.087055;0.086684;0.086478;0.086478;0.086022;0.086125;0.086383;0.085810;0.085508;0.085694;0.085221;0.085043;0.085149;0.084890;0.084458;0.084894;0.084329;0.084185;0.084629;0.083822;0.084164;0.083878;0.083543;0.083385;0.084041;0.083082;0.083409;0.083429;0.083243;0.082985;0.083092;0.082915;0.082649;0.082264;0.082061;0.082484;0.082332;0.082279;0.082193;0.082408;0.082150;0.081944;0.081943;0.081515;0.081965;0.081544;0.081205;0.081480;0.081440;0.081360;0.081145;0.081739;0.081500;0.081338;0.081066
301.000000;0.089782;0.090179;0.089538;0.089000;0.089226;0.089111;0.088692;0.088418;0.088479;0.088415;0.087821;0.088009;0.088548;0.087713;0.087291;0.087370;0.086806;0.087261;0.087068;0.086556;0.086311;0.086910;0.085921;0.086192;0.086643;0.085472;0.085893;0.085901;0.085369;0.085343;0.085727;0.084834;0.085388;0.085326;0.084861;0.084673;0.085047;0.084846;0.084379;0.084545;0.083937;0.084232;0.084439;0.084175;0.084367;0.084207;0.083904;0.084075;0.084003;0.083297;0.084025;0.083396;0.083149;0.083429;0.083319;0.082995;0.083186;0.083162;0.083541;0.083133;0.082921
301.500000;0.091818;0.091838;0.091406;0.090850;0.091243;0.090680;0.090250;0.090307;0.090071;0.089982;0.089561;0.089778;0.090183;0.089788;0.089133;0.089246;0.088422;0.088990;0.088861;0.088535;0.088133;0.088737;0.087923;0.087929;0.088452;0.087424;0.087528;0.087492;0.087709;0.087360;0.087318;0.087066;0.086930;0.086903;0.086810;0.086420;0.086764;0.086642;0.086426;0.086123;0.085978;0.086112;0.086675;0.086023;0.086218;0.085886;0.085688;0.085729;0.086023;0.085126;0.085478;0.085075;0.085214;0.085379;0.085080;0.085010;0.085071;0.084886;0.085114;0.084864;0.084950
302.000000;0.093920;0.093310;0.093296;0.092879;0.093174;0.092501;0.092259;0.092378;0.091849;0.091825;0.091441;0.091850;0.091900;0.091714;0.091128;0.091353;0.090634;0.090819;0.090878;0.090626;0.090155;0.090582;0.090079;0.089768;0.090306;0.089729;0.089445;0.089297;0.089786;0.089209;0.089179;0.089220;0.088655;0.088701;0.088814;0.088296;0.088573;0.088362;0.088438;0.087751;0.087979;0.088065;0.088596;0.087996;0.087946;0.087791;0.087653;0.087396;0.087840;0.087145;0.087127;0.086998;0.087164;0.087299;0.086907;0.087020;0.086921;0.086762;0.086825;0.086680;0.087036
302.500000;0.095961;0.095105;0.095344;0.095150;0.094923;0.094689;0.094774;0.094571;0.094089;0.094128;0.093525;0.094189;0.093977;0.093441;0.093239;0.093531;0.093300;0.093019;0.093100;0.092666;0.092330;0.092559;0.092131;0.091883;0.092285;0.092057;0.091686;0.091487;0.091355;0.090915;0.091368;0.090991;0.090806;0.090862;0.090727;0.090299;0.090616;0.090202;0.090302;0.089868;0.089874;0.090075;0.090199;0.090083;0.089732;0.089942;0.089813;0.089397;0.089529;0.089293;0.089291;0.089249;0.088932;0.089252;0.088947;0.088806;0.088844;0.088651;0.088897;0.088697;0.089004
303.000000;0.098005;0.097440;0.097459;0.097245;0.096882;0.096585;0.097099;0.096787;0.096377;0.096185;0.095653;0.096051;0.095948;0.095413;0.095275;0.095489;0.095281;0.095129;0.094923;0.094717;0.094207;0.094549;0.094030;0.093989;0.094121;0.093700;0.093768;0.093376;0.093220;0.092892;0.093452;0.092699;0.092877;0.092779;0.092775;0.092368;0.092656;0.092451;0.092407;0.092015;0.091876;0.092258;0.092128;0.091963;0.091576;0.091848;0.091959;0.091498;0.091486;0.091254;0.091274;0.091318;0.090737;0.091378;0.091189;0.090629;0.090816;0.090630;0.090744;0.090905;0.090688
303.500000;0.100146;0.099997;0.099565;0.099222;0.099037;0.098451;0.099161;0.098900;0.098516;0.098130;0.097768;0.097677;0.097871;0.097605;0.097287;0.097351;0.096873;0.097202;0.096609;0.096841;0.096023;0.096657;0.095962;0.096117;0.095983;0.095150;0.095741;0.095218;0.095529;0.095227;0.095366;0.094750;0.094786;0.094696;0.094937;0.094534;0.094736;0.094723;0.094694;0.094081;0.094036;0.094478;0.094319;0.093804;0.093580;0.093665;0.093985;0.093582;0.093622;0.093165;0.093201;0.093320;0.092910;0.093617;0.093459;0.092737;0.092901;0.092853;0.092604;0.093122;0.092485
304.000000;0.102431;0.102290;0.101654;0.101386;0.101187;0.100935;0.101271;0.100866;0.100548;0.100478;0.099911;0.099796;0.100070;0.099744;0.099469;0.099449;0.099052;0.099529;0.098805;0.099067;0.098284;0.099047;0.098176;0.098443;0.098222;0.097379;0.097935;0.097652;0.097967;0.097756;0.097324;0.097381;0.096765;0.097194;0.097094;0.096853;0.097008;0.096504;0.096873;0.096220;0.096282;0.096529;0.096362;0.096006;0.095858;0.095861;0.095956;0.095677;0.095649;0.095377;0.095562;0.095638;0.095639;0.095803;0.095561;0.095207;0.095168;0.095400;0.095015;0.095174;0.094906
304.500000;0.104673;0.104523;0.103965;0.103691;0.103566;0.103601;0.103495;0.103031;0.102789;0.102889;0.102207;0.102368;0.102385;0.101932;0.101948;0.101837;0.101565;0.101814;0.101311;0.101343;0.100684;0.101461;0.100630;0.100827;0.100680;0.100071;0.100301;0.100184;0.100268;0.100216;0.099600;0.099996;0.099073;0.099784;0.099487;0.099217;0.099245;0.098648;0.099003;0.098606;0.098534;0.098609;0.098498;0.098571;0.098262;0.098331;0.098316;0.097999;0.097819;0.097837;0.097914;0.097919;0.098229;0.097925;0.097625;0.097510;0.097447;0.097868;0.097362;0.097377;0.097399
305.000000;0.106849;0.106937;0.106523;0.106060;0.106213;0.106069;0.105839;0.105534;0.105358;0.105131;0.104661;0.105044;0.104725;0.104354;0.104583;0.104358;0.103972;0.103918;0.103833;0.103677;0.103016;0.103724;0.103181;0.103197;0.103143;0.102711;0.102684;0.102415;0.102427;0.102490;0.102211;0.102246;0.101767;0.102068;0.102154;0.101583;0.101425;0.101553;0.101204;0.101210;0.100781;0.100920;0.100980;0.101244;0.100691;0.100850;0.101057;0.100574;0.100293;0.100315;0.100084;0.100010;0.100318;0.100112;0.099840;0.099532;0.099732;0.100049;0.099385;0.099903;0.099626
305.500000;0.109321;0.109476;0.108881;0.108529;0.108635;0.108565;0.108316;0.107977;0.107900;0.107569;0.107039;0.107347;0.107328;0.107134;0.106847;0.106649;0.106131;0.106255;0.106342;0.106211;0.105623;0.106021;0.105665;0.105745;0.105547;0.105091;0.104942;0.104664;0.104849;0.104764;0.104709;0.104606;0.104535;0.104331;0.104618;0.104074;0.104039;0.104188;0.103516;0.103662;0.103126;0.103462;0.103753;0.103549;0.103249;0.103275;0.103242;0.103004;0.102798;0.102508;0.102772;0.102446;0.102546;0.102640;0.102330;0.102137;0.102388;0.102302;0.101965;0.102437;0.102116
306.000000;0.111932;0.111933;0.111041;0.111030;0.110808;0.110967;0.110756;0.110283;0.110191;0.110101;0.109358;0.109450;0.109976;0.109805;0.108907;0.108760;0.108166;0.108768;0.108731;0.108740;0.108299;0.108386;0.108024;0.108185;0.107841;0.107265;0.107213;0.107071;0.107318;0.107043;0.106999;0.107038;0.106936;0.106678;0.106786;0.106501;0.106663;0.106355;0.105869;0.105856;0.105502;0.105998;0.106394;0.105524;0.105678;0.105584;0.105096;0.105225;0.105130;0.104615;0.105517;0.105064;0.104990;0.105274;0.104890;0.105045;0.105059;0.104639;0.104822;0.104720;0.104662
306.500000;0.114205;0.114100;0.113362;0.113424;0.113084;0.112958;0.112926;0.112635;0.112227;0.112324;0.111811;0.111924;0.112220;0.111688;0.111357;0.111044;0.110374;0.111082;0.110885;0.110906;0.110496;0.110729;0.110310;0.110027;0.110016;0.109465;0.109749;0.109558;0.109282;0.109228;0.109310;0.109156;0.108660;0.109023;0.108915;0.108550;0.108435;0.108572;0.108166;0.107947;0.107759;0.108221;0.108426;0.107608;0.107596;0.107838;0.107611;0.107467;0.107265;0.107104;0.107230;0.107248;0.107287;0.107493;0.107144;0.107251;0.107034;0.106839;0.106946;0.106687;0.106621
307.000000;0.116361;0.116334;0.115912;0.115707;0.115517;0.115013;0.115035;0.114928;0.114445;0.114575;0.114291;0.114572;0.114516;0.113574;0.113822;0.113544;0.112913;0.113401;0.113071;0.113104;0.112542;0.113059;0.112673;0.111966;0.112330;0.111860;0.112176;0.112016;0.111354;0.111570;0.111826;0.111362;0.110577;0.111373;0.111236;0.110707;0.110393;0.110860;0.110606;0.110160;0.110083;0.110428;0.110567;0.110041;0.109649;0.110038;0.110369;0.109865;0.109667;0.109640;0.109055;0.109311;0.109603;0.109550;0.109218;0.109365;0.109029;0.109182;0.109051;0.108864;0.108682
307.500000;0.118711;0.118899;0.118570;0.117997;0.118016;0.117549;0.117363;0.117126;0.117122;0.117134;0.116663;0.117061;0.117184;0.116171;0.115970;0.116119;0.115705;0.115898;0.115505;0.115663;0.114849;0.115452;0.115200;0.114594;0.114923;0.114453;0.114259;0.114398;0.114040;0.114190;0.114500;0.113946;0.113331;0.113772;0.113789;0.113359;0.113347;0.113204;0.113238;0.112652;0.112602;0.112896;0.113298;0.112784;0.112357;0.112268;0.112772;0.112451;0.112526;0.111914;0.111948;0.111688;0.112137;0.111840;0.111395;0.111981;0.111687;0.111803;0.111801;0.111573;0.111415
308.000000;0.121206;0.121433;0.121058;0.120573;0.120423;0.120214;0.120004;0.119583;0.119849;0.119580;0.118998;0.119406;0.119529;0.118826;0.118368;0.118511;0.118271;0.118232;0.118005;0.118171;0.117325;0.118050;0.117779;0.117349;0.117481;0.116961;0.116590;0.116837;0.116681;0.116659;0.116836;0.116350;0.116140;0.116289;0.116255;0.116035;0.116084;0.115918;0.115571;0.115369;0.115078;0.115406;0.115652;0.115369;0.115140;0.114849;0.114980;0.115116;0.115055;0.114357;0.114703;0.114346;0.114743;0.114446;0.113902;0.114392;0.114357;0.114127;0.114366;0.114247;0.114069
308.500000;0.123846;0.123864;0.123444;0.123339;0.122805;0.122809;0.122824;0.122321;0.122411;0.121906;0.121557;0.121783;0.121624;0.121308;0.121129;0.120879;0.120638;0.120580;0.120599;0.120652;0.119910;0.120775;0.120321;0.119997;0.119967;0.119455;0.119321;0.119445;0.119127;0.118993;0.119012;0.118601;0.118720;0.118906;0.118648;0.118493;0.118364;0.118893;0.117833;0.118169;0.117544;0.117883;0.117658;0.117798;0.117702;0.117624;0.117288;0.117732;0.117229;0.117086;0.117080;0.117150;0.117305;0.117236;0.116771;0.116578;0.116833;0.116373;0.116619;0.116725;0.116433
309.000000;0.126667;0.126450;0.126086;0.125858;0.125417;0.125384;0.125509;0.125014;0.124878;0.124531;0.124622;0.124426;0.124298;0.123946;0.123823;0.123695;0.123298;0.123545;0.123500;0.123535;0.122611;0.123359;0.122786;0.122734;0.122629;0.122298;0.122069;0.122238;0.121817;0.121636;0.121775;0.121307;0.121421;0.121520;0.121296;0.120860;0.121056;0.121615;0.120839;0.120852;0.120285;0.120449;0.120370;0.120504;0.120187;0.120044;0.119943;0.120187;0.119812;0.119800;0.119949;0.119923;0.119784;0.119920;0.119805;0.119277;0.119463;0.119434;0.119230;0.119338;0.118960
309.500000;0.129306;0.129055;0.128690;0.128175;0.128113;0.127957;0.127999;0.127692;0.127288;0.127209;0.127478;0.127188;0.127121;0.126685;0.126413;0.126502;0.125956;0.126509;0.126253;0.126262;0.125168;0.125869;0.125187;0.125227;0.125296;0.125069;0.124661;0.124876;0.124516;0.124354;0.124610;0.124139;0.124068;0.124069;0.123982;0.123382;0.123855;0.124168;0.123878;0.123292;0.123000;0.123083;0.123400;0.123156;0.122730;0.122477;0.122698;0.122517;0.122655;0.122324;0.122794;0.122514;0.122149;0.122462;0.122550;0.122261;0.122007;0.122489;0.121909;0.122036;0.121630
310.000000;0.131551;0.131513;0.130980;0.130578;0.130691;0.130563;0.130388;0.130447;0.129736;0.129645;0.129538;0.129857;0.129506;0.129359;0.129024;0.128808;0.128316;0.128800;0.128474;0.128348;0.127466;0.128481;0.127635;0.127317;0.127774;0.127369;0.127144;0.127154;0.126909;0.126834;0.126906;0.126624;0.126439;0.126578;0.126462;0.126205;0.126249;0.126781;0.126109;0.125550;0.125398;0.125743;0.126047;0.125420;0.125405;0.125383;0.125299;0.124889;0.125344;0.124700;0.124968;0.124934;0.124473;0.124962;0.124796;0.125017;0.124266;0.124656;0.124258;0.124660;0.124266
310.500000;0.134141;0.134105;0.133575;0.133342;0.133290;0.133292;0.132858;0.133028;0.132519;0.132309;0.131887;0.132506;0.132081;0.132002;0.131679;0.131248;0.131115;0.131208;0.130872;0.130856;0.130122;0.131186;0.130421;0.130046;0.130352;0.129901;0.129848;0.129705;0.129337;0.129433;0.129467;0.129132;0.128897;0.129251;0.129152;0.129006;0.128742;0.129258;0.128383;0.128103;0.127978;0.128499;0.128649;0.127975;0.128115;0.128198;0.128086;0.127624;0.127947;0.127394;0.127345;0.127620;0.127107;0.127570;0.127337;0.127516;0.126943;0.127165;0.126843;0.127248;0.126874
311.000000;0.137208;0.136927;0.136561;0.136283;0.135990;0.136068;0.135517;0.135447;0.135506;0.135284;0.134954;0.135164;0.135024;0.134716;0.134400;0.134136;0.134355;0.134068;0.133769;0.133983;0.133223;0.133887;0.133437;0.133443;0.133118;0.132820;0.132869;0.132702;0.132015;0.132285;0.132554;0.131900;0.131656;0.132087;0.132116;0.131674;0.131622;0.131648;0.131185;0.131044;0.130904;0.131278;0.131399;0.131008;0.130808;0.130709;0.131093;0.130683;0.130580;0.130431;0.130298;0.130597;0.130108;0.130327;0.130370;0.129967;0.130134;0.130299;0.129799;0.129843;0.129570
311.500000;0.139983;0.139760;0.139221;0.138735;0.138731;0.138644;0.138363;0.138105;0.138069;0.138048;0.137982;0.137770;0.137724;0.137622;0.137235;0.137123;0.136989;0.136843;0.136755;0.136596;0.136077;0.136453;0.136104;0.136130;0.135828;0.135418;0.135939;0.135593;0.134852;0.135105;0.135463;0.134802;0.134604;0.134828;0.134885;0.134460;0.134651;0.134374;0.134153;0.133926;0.133765;0.133851;0.134098;0.133893;0.133548;0.133371;0.133878;0.133577;0.133304;0.133230;0.133248;0.133329;0.133122;0.133142;0.133177;0.132733;0.133034;0.132802;0.132547;0.132482;0.132538
312.000000;0.142545;0.142527;0.141596;0.141033;0.141415;0.141234;0.141234;0.140888;0.140470;0.140597;0.140651;0.140453;0.140289;0.140416;0.140035;0.139871;0.139310;0.139437;0.139509;0.138875;0.138696;0.139003;0.138532;0.138424;0.138461;0.137846;0.138640;0.138280;0.137703;0.137811;0.137972;0.137649;0.137505;0.137505;0.137486;0.137179;0.137450;0.137234;0.136964;0.136694;0.136387;0.136461;0.136802;0.136495;0.136353;0.136137;0.136441;0.136171;0.136011;0.135758;0.135956;0.135848;0.135957;0.135903;0.135723;0.135652;0.135615;0.135096;0.135131;0.135258;0.135527
312.500000;0.145356;0.145241;0.144128;0.143845;0.144024;0.144153;0.143963;0.143498;0.143277;0.143225;0.143042;0.143332;0.143140;0.142761;0.142640;0.142256;0.142116;0.142039;0.141935;0.141582;0.141430;0.141735;0.141170;0.141309;0.141154;0.140618;0.140770;0.140909;0.140479;0.140472;0.140280;0.140317;0.140172;0.140251;0.140175;0.139594;0.139825;0.139838;0.139472;0.139483;0.138858;0.139418;0.139650;0.139014;0.139187;0.138742;0.139054;0.138614;0.138599;0.138301;0.138510;0.138496;0.138595;0.138549;0.138329;0.138362;0.138266;0.138175;0.137888;0.138211;0.138187
313.000000;0.148321;0.147951;0.146979;0.146850;0.146918;0.147086;0.146704;0.146171;0.146210;0.146124;0.145627;0.146070;0.146168;0.145205;0.145298;0.144845;0.145009;0.144846;0.144532;0.144607;0.144272;0.144608;0.144148;0.144357;0.144137;0.143591;0.143285;0.143467;0.143375;0.143238;0.142998;0.143056;0.142853;0.142948;0.142928;0.142310;0.142572;0.142537;0.142045;0.142236;0.141668;0.142260;0.142494;0.141738;0.141946;0.141328;0.141959;0.141283;0.141421;0.141100;0.141378;0.141452;0.141280;0.141241;0.141046;0.140932;0.141121;0.141295;0.140804;0.141066;0.140815
313.500000;0.151215;0.150676;0.150071;0.149736;0.150126;0.149872;0.149578;0.149091;0.149011;0.149227;0.148628;0.148603;0.149123;0.148089;0.148194;0.147912;0.147750;0.147836;0.147549;0.147662;0.147172;0.147490;0.147311;0.147140;0.147300;0.146540;0.146582;0.146052;0.146387;0.146140;0.146231;0.145973;0.145666;0.145617;0.145694;0.145526;0.145864;0.145540;0.144944;0.144989;0.144868;0.144800;0.145244;0.144765;0.144652;0.144099;0.145022;0.144304;0.144554;0.144138;0.144616;0.144567;0.144145;0.144104;0.143906;0.143593;0.144092;0.143930;0.143774;0.143726;0.143646
314.000000;0.153855;0.153387;0.153071;0.152597;0.153024;0.152834;0.152528;0.152129;0.151792;0.152116;0.151711;0.151467;0.151770;0.151083;0.151230;0.150988;0.150794;0.150666;0.150611;0.150536;0.150154;0.150221;0.150196;0.149799;0.150007;0.149373;0.149749;0.148976;0.149113;0.148991;0.149157;0.148831;0.148380;0.148595;0.148503;0.148496;0.148560;0.148548;0.148047;0.147984;0.147699;0.147591;0.148017;0.147855;0.147527;0.147185;0.147577;0.147310;0.147484;0.147026;0.147504;0.147268;0.147052;0.147111;0.147004;0.146641;0.146860;0.146603;0.146699;0.146502;0.146561
314.500000;0.156482;0.156169;0.156027;0.155495;0.155688;0.155860;0.155523;0.155056;0.154692;0.154806;0.154699;0.154658;0.154366;0.154061;0.154200;0.153862;0.153986;0.153467;0.153563;0.153362;0.153115;0.152999;0.152919;0.152555;0.152589;0.152180;0.152550;0.152125;0.151797;0.151834;0.151780;0.151733;0.151103;0.151827;0.151446;0.151231;0.150966;0.151430;0.151192;0.151091;0.150257;0.150703;0.150899;0.150773;0.150507;0.150401;0.150090;0.150267;0.150139;0.149829;0.150036;0.149804;0.150015;0.150160;0.150143;0.149852;0.149520;0.149563;0.149641;0.149463;0.149473
315.000000;0.159494;0.159138;0.159135;0.158424;0.158606;0.158595;0.158529;0.157686;0.157770;0.157587;0.157572;0.157765;0.157366;0.157058;0.156911;0.156601;0.156803;0.156594;0.156443;0.156410;0.155919;0.156161;0.155904;0.155586;0.155834;0.155103;0.155304;0.155116;0.154981;0.154813;0.154634;0.154905;0.154127;0.154960;0.154565;0.154212;0.154174;0.154220;0.154207;0.153959;0.153183;0.153825;0.153890;0.153388;0.153350;0.153397;0.153515;0.153348;0.152805;0.152838;0.152720;0.152839;0.153105;0.153116;0.152991;0.152736;0.152416;0.152721;0.152697;0.152468;0.152347
315.500000;0.162526;0.162165;0.161845;0.161283;0.161490;0.161270;0.161321;0.160382;0.160749;0.160382;0.160340;0.160553;0.160395;0.159964;0.159576;0.159445;0.159433;0.159619;0.159240;0.159413;0.158803;0.159399;0.158856;0.158751;0.158986;0.157956;0.158120;0.157887;0.158146;0.157653;0.157510;0.157794;0.157252;0.157709;0.157449;0.157155;0.157366;0.156984;0.156947;0.156572;0.156356;0.156794;0.156739;0.155969;0.156095;0.156156;0.156807;0.156373;0.155744;0.155679;0.155685;0.155918;0.156058;0.155912;0.155694;0.155444;0.155523;0.155666;0.155537;0.155355;0.155178
316.000000;0.165291;0.165120;0.164084;0.164097;0.164194;0.164123;0.163909;0.163435;0.163525;0.163182;0.163131;0.163141;0.163180;0.162799;0.162462;0.162512;0.162197;0.162261;0.162027;0.162199;0.161889;0.162367;0.161595;0.161884;0.161507;0.160684;0.161041;0.160587;0.160897;0.160299;0.160252;0.160200;0.160250;0.160155;0.160004;0.159880;0.159950;0.159817;0.159548;0.159190;0.159478;0.159614;0.159421;0.158826;0.158929;0.158866;0.159228;0.159212;0.158989;0.158240;0.158859;0.158658;0.158740;0.158670;0.158482;0.158296;0.158686;0.158281;0.158094;0.158145;0.158029
316.500000;0.168163;0.168042;0.167210;0.167191;0.167357;0.166999;0.166876;0.166618;0.166564;0.166328;0.166262;0.166216;0.166213;0.165931;0.165650;0.165555;0.165203;0.165057;0.165071;0.165140;0.164811;0.165087;0.164628;0.164964;0.164319;0.163700;0.164106;0.163566;0.163799;0.163385;0.163312;0.163154;0.163167;0.163070;0.163065;0.162929;0.163050;0.162836;0.162666;0.162369;0.162398;0.162512;0.162506;0.162059;0.162114;0.161882;0.161986;0.162062;0.162119;0.161361;0.162001;0.161569;0.161516;0.161819;0.161433;0.161512;0.161719;0.161246;0.161099;0.161232;0.161083
317.000000;0.171252;0.171020;0.170989;0.170451;0.170691;0.169844;0.170177;0.169725;0.169832;0.169623;0.169493;0.169598;0.169453;0.169133;0.168821;0.168456;0.168327;0.168176;0.168307;0.168228;0.167557;0.167815;0.167853;0.167909;0.167541;0.166893;0.167180;0.166751;0.166912;0.166710;0.166624;0.166693;0.166091;0.166442;0.166565;0.166202;0.166548;0.165988;0.166109;0.165822;0.165180;0.165517;0.165965;0.165332;0.165426;0.165188;0.165320;0.165071;0.165009;0.164911;0.164969;0.164751;0.164552;0.165086;0.164507;0.164824;0.164628;0.164574;0.164485;0.164582;0.164317
317.500000;0.174322;0.174124;0.173811;0.173400;0.173213;0.172744;0.173202;0.172673;0.172825;0.172462;0.172196;0.172413;0.172358;0.171743;0.171447;0.171287;0.171290;0.171349;0.171371;0.171109;0.170446;0.170899;0.170655;0.170610;0.170471;0.169736;0.170037;0.169729;0.169793;0.169404;0.169653;0.169880;0.169088;0.169543;0.169615;0.169035;0.169208;0.169078;0.168987;0.168625;0.168041;0.168472;0.169180;0.168085;0.168284;0.168403;0.168432;0.168249;0.167853;0.167900;0.167771;0.167851;0.167749;0.167701;0.167576;0.167639;0.167568;0.167657;0.167473;0.167764;0.167510
318.000000;0.177055;0.177075;0.176172;0.176120;0.175788;0.175755;0.175974;0.175563;0.175548;0.175179;0.174816;0.175111;0.175043;0.174258;0.173997;0.174200;0.174017;0.174353;0.174128;0.173944;0.173374;0.174056;0.173377;0.173283;0.173187;0.172620;0.172876;0.172639;0.172560;0.172005;0.172490;0.172530;0.172021;0.172320;0.172269;0.171591;0.171648;0.172026;0.171589;0.171204;0.170992;0.171423;0.171945;0.170852;0.170890;0.171241;0.171315;0.171246;0.170692;0.170493;0.170589;0.170793;0.170841;0.170293;0.170457;0.170194;0.170396;0.170579;0.170196;0.170644;0.170465
318.500000;0.179419;0.179695;0.179040;0.178894;0.179271;0.178853;0.178734;0.178514;0.178221;0.178176;0.177874;0.178223;0.177817;0.177281;0.176981;0.177261;0.176652;0.177115;0.176668;0.176937;0.176217;0.176950;0.176449;0.176150;0.176043;0.175931;0.175883;0.175689;0.175473;0.175202;0.175382;0.174955;0.174824;0.175045;0.174940;0.174298;0.174717;0.174857;0.174440;0.174180;0.173990;0.174454;0.174438;0.174161;0.173662;0.173717;0.174226;0.173860;0.173552;0.173203;0.173568;0.173649;0.173661;0.173544;0.173110;0.172948;0.173050;0.173544;0.173048;0.173344;0.173150
319.000000;0.182226;0.182461;0.182170;0.181887;0.182342;0.181846;0.181556;0.181458;0.181023;0.180931;0.180855;0.180973;0.180746;0.180361;0.179870;0.180195;0.179668;0.179888;0.179406;0.179789;0.179270;0.179803;0.179399;0.179059;0.179195;0.178957;0.178724;0.178622;0.178485;0.178450;0.178260;0.177869;0.177842;0.178049;0.177879;0.177327;0.177732;0.177715;0.177308;0.177141;0.177066;0.177490;0.177380;0.177239;0.176676;0.176528;0.177169;0.176686;0.176597;0.176105;0.176535;0.176555;0.176490;0.176647;0.175908;0.175988;0.175996;0.176246;0.176039;0.176292;0.175931
319.500000;0.185614;0.185549;0.185240;0.185005;0.184669;0.184599;0.184430;0.184303;0.183926;0.183522;0.183560;0.183374;0.183731;0.183284;0.182549;0.182976;0.182998;0.182760;0.182495;0.182458;0.182417;0.182739;0.182096;0.181916;0.182393;0.181584;0.181396;0.181359;0.181471;0.181371;0.181211;0.181289;0.181078;0.181219;0.181006;0.180526;0.180441;0.180595;0.180154;0.179981;0.180142;0.180407;0.180696;0.179841;0.179853;0.179789;0.180053;0.179795;0.179752;0.179141;0.179396;0.179500;0.179443;0.179383;0.178974;0.179158;0.179242;0.178788;0.179020;0.179512;0.178899
320.000000;0.188795;0.188657;0.188103;0.187916;0.187439;0.187147;0.187303;0.187010;0.186693;0.186801;0.186371;0.186499;0.186563;0.186305;0.185557;0.185907;0.185946;0.185590;0.185700;0.185281;0.185077;0.185655;0.184961;0.184777;0.185060;0.184553;0.184357;0.184128;0.184309;0.184077;0.184506;0.184391;0.184084;0.183990;0.183926;0.183472;0.183369;0.183347;0.183279;0.183110;0.183020;0.183088;0.183408;0.182588;0.182996;0.182851;0.182769;0.182562;0.182673;0.182191;0.182231;0.182326;0.182367;0.182465;0.182066;0.182134;0.182204;0.181777;0.181773;0.182523;0.181784
320.500000;0.191537;0.191637;0.190721;0.190629;0.190545;0.189944;0.190219;0.189814;0.189397;0.190203;0.189328;0.189790;0.189273;0.189235;0.188704;0.188720;0.188650;0.188525;0.188668;0.188258;0.187621;0.188489;0.187908;0.187669;0.187623;0.187672;0.187430;0.187027;0.187078;0.186865;0.187709;0.187111;0.186831;0.186569;0.186674;0.186300;0.186379;0.186230;0.186402;0.186195;0.185702;0.185683;0.185955;0.185653;0.185865;0.185739;0.185515;0.185211;0.185362;0.185066;0.185140;0.185135;0.185233;0.185686;0.185147;0.184996;0.184904;0.184941;0.184469;0.185219;0.184636
321.000000;0.194014;0.194413;0.193222;0.193328;0.193350;0.193306;0.193177;0.192892;0.192210;0.192784;0.192268;0.192288;0.192024;0.191819;0.191535;0.191125;0.191504;0.191706;0.191179;0.191244;0.190626;0.191231;0.190686;0.190568;0.190699;0.190432;0.190244;0.190042;0.189901;0.189931;0.190276;0.189768;0.189485;0.189426;0.189460;0.189300;0.189155;0.189477;0.189118;0.188767;0.188343;0.188445;0.189126;0.188862;0.188372;0.188752;0.188511;0.188226;0.188022;0.187658;0.188129;0.188039;0.188068;0.188490;0.188200;0.187928;0.187651;0.187739;0.187365;0.187750;0.187564
321.500000;0.196677;0.196818;0.196122;0.196129;0.195992;0.196298;0.195837;0.195674;0.195061;0.195110;0.195018;0.194903;0.194954;0.194471;0.194122;0.193875;0.194143;0.194672;0.193685;0.194295;0.193521;0.193967;0.193483;0.193357;0.193581;0.193101;0.193011;0.193053;0.192670;0.192817;0.192683;0.192499;0.192077;0.192406;0.192256;0.192200;0.192091;0.192406;0.191738;0.191370;0.191256;0.191457;0.192118;0.191792;0.191061;0.191764;0.191454;0.191307;0.190858;0.190284;0.190861;0.190680;0.190829;0.190960;0.190857;0.190711;0.190527;0.190446;0.190286;0.190398;0.190244
322.000000;0.199559;0.199026;0.199290;0.198976;0.198641;0.198597;0.198163;0.197993;0.197798;0.197688;0.197580;0.197970;0.197935;0.197309;0.196749;0.197107;0.196546;0.197181;0.196458;0.197280;0.196046;0.196674;0.196332;0.196008;0.195999;0.195879;0.195842;0.195868;0.195303;0.195319;0.195335;0.195267;0.194689;0.195296;0.195033;0.194802;0.195211;0.194749;0.194542;0.194290;0.194365;0.194551;0.194534;0.194268;0.194058;0.194538;0.194163;0.194185;0.193845;0.193173;0.193410;0.193111;0.193511;0.193376;0.193155;0.193336;0.193466;0.193271;0.193095;0.193243;0.192700
322.500000;0.202032;0.201708;0.201592;0.201610;0.201264;0.201189;0.200681;0.200524;0.200282;0.200426;0.200212;0.200418;0.200490;0.199831;0.199780;0.199755;0.199408;0.199538;0.199291;0.199780;0.198778;0.199178;0.198926;0.198676;0.198736;0.198610;0.198523;0.198271;0.197866;0.197834;0.198171;0.197869;0.197518;0.198019;0.197849;0.197242;0.197809;0.197161;0.197494;0.197100;0.197020;0.197277;0.197116;0.196603;0.196700;0.196868;0.196817;0.196919;0.196633;0.196266;0.196517;0.196097;0.196201;0.196062;0.195828;0.196213;0.196279;0.196052;0.195858;0.196030;0.195592
323.000000;0.204417;0.204831;0.203635;0.204171;0.204007;0.204120;0.203661;0.203463;0.202906;0.203267;0.202978;0.202668;0.202915;0.202287;0.202929;0.202067;0.202484;0.202211;0.202210;0.202091;0.201765;0.201832;0.201629;0.201477;0.201745;0.201261;0.201169;0.200701;0.200669;0.200606;0.201076;0.200519;0.200578;0.200722;0.200740;0.199894;0.200234;0.199938;0.200410;0.199746;0.199521;0.199876;0.200068;0.199164;0.199231;0.199212;0.199584;0.199611;0.199341;0.199296;0.199867;0.199421;0.199027;0.198899;0.198911;0.199228;0.199073;0.198809;0.198590;0.198787;0.198863
323.500000;0.207420;0.207844;0.206755;0.206954;0.206997;0.206815;0.206997;0.206545;0.206133;0.206140;0.205771;0.205799;0.205817;0.205248;0.205610;0.204949;0.205045;0.205460;0.205286;0.204821;0.204646;0.205065;0.204949;0.204392;0.204452;0.203912;0.204021;0.203745;0.203943;0.203622;0.203908;0.203522;0.203678;0.203583;0.203639;0.203051;0.203274;0.202964;0.203064;0.202414;0.202551;0.202860;0.203125;0.202179;0.202289;0.202210;0.202512;0.202325;0.202266;0.201966;0.202616;0.202275;0.202038;0.201553;0.201946;0.201985;0.202059;0.201661;0.201257;0.201646;0.201937
324.000000;0.210344;0.210258;0.209840;0.209712;0.209700;0.209263;0.209881;0.209178;0.209090;0.208736;0.208472;0.208830;0.208700;0.208256;0.208043;0.207833;0.207414;0.208291;0.207998;0.207633;0.207196;0.207979;0.207871;0.206976;0.206895;0.206702;0.206814;0.206622;0.206880;0.206377;0.206540;0.206230;0.206339;0.206294;0.206181;0.205999;0.206202;0.205695;0.205548;0.205060;0.205384;0.205756;0.205913;0.205211;0.205255;0.205237;0.205304;0.204955;0.204990;0.204527;0.205150;0.204626;0.204866;0.204219;0.204687;0.204641;0.204975;0.204562;0.203890;0.204321;0.204414
324.500000;0.212684;0.212214;0.212110;0.212201;0.211937;0.211614;0.211995;0.211254;0.211347;0.211015;0.211066;0.211123;0.211173;0.210906;0.210570;0.210269;0.210004;0.210275;0.210167;0.210198;0.209506;0.210089;0.209904;0.209220;0.209382;0.209606;0.209407;0.208894;0.209073;0.208735;0.209035;0.208437;0.208530;0.208757;0.208362;0.208339;0.208508;0.208012;0.208080;0.207680;0.207623;0.208236;0.208332;0.207909;0.207760;0.207789;0.207846;0.207475;0.207344;0.207207;0.207864;0.206866;0.207383;0.207066;0.207182;0.207370;0.207573;0.207397;0.206600;0.206708;0.206465
325.000000;0.215046;0.214912;0.214721;0.214478;0.214501;0.213969;0.214288;0.213678;0.213984;0.213529;0.213697;0.213777;0.213629;0.213431;0.213245;0.212799;0.212741;0.212680;0.212527;0.212692;0.212126;0.212384;0.212326;0.212077;0.212302;0.212220;0.212123;0.211476;0.211411;0.211457;0.211752;0.211218;0.211137;0.211477;0.210956;0.210787;0.210888;0.210768;0.210889;0.210424;0.210211;0.210766;0.210797;0.210435;0.210547;0.210253;0.210510;0.210069;0.209961;0.209845;0.210427;0.209678;0.210093;0.209860;0.209842;0.210009;0.209876;0.209988;0.209542;0.209247;0.209159
325.500000;0.217608;0.218045;0.217590;0.216705;0.217284;0.216505;0.216884;0.216423;0.216859;0.216223;0.216284;0.216760;0.216156;0.215911;0.215840;0.215448;0.215300;0.215515;0.215145;0.215239;0.214974;0.215078;0.215204;0.215205;0.215226;0.214483;0.214766;0.214393;0.214121;0.214462;0.214518;0.214325;0.214012;0.214291;0.213910;0.213440;0.213490;0.213796;0.213714;0.213162;0.213144;0.213413;0.213369;0.212963;0.213482;0.212773;0.213258;0.212713;0.212801;0.212314;0.212689;0.212845;0.212769;0.212472;0.212588;0.212464;0.212135;0.212325;0.212396;0.212037;0.212307
326.000000;0.220095;0.220238;0.219662;0.219092;0.219511;0.219353;0.219210;0.218740;0.218917;0.218609;0.218622;0.219086;0.218563;0.218273;0.218037;0.217829;0.217360;0.217791;0.217534;0.217856;0.217499;0.217644;0.217596;0.217387;0.217290;0.216671;0.216836;0.216890;0.216776;0.217002;0.216824;0.216557;0.216255;0.216556;0.216514;0.215862;0.215981;0.216195;0.216055;0.215614;0.215616;0.215906;0.215836;0.215577;0.215790;0.215236;0.215734;0.215240;0.215312;0.214631;0.214782;0.215509;0.214762;0.214919;0.215003;0.214775;0.214688;0.214598;0.214641;0.214833;0.214818
326.500000;0.222312;0.222059;0.221522;0.221657;0.221575;0.221849;0.221436;0.220906;0.220720;0.220978;0.220850;0.220874;0.220851;0.220531;0.220168;0.220223;0.219525;0.219954;0.219778;0.220352;0.219738;0.219912;0.219743;0.219355;0.219215;0.218963;0.218855;0.218847;0.219141;0.219139;0.218958;0.218499;0.218265;0.218485;0.218731;0.218139;0.218561;0.218458;0.218399;0.217985;0.217618;0.218325;0.218360;0.217922;0.217894;0.217677;0.217959;0.217668;0.217705;0.217080;0.217050;0.217676;0.216878;0.217220;0.217291;0.217086;0.217223;0.217093;0.216914;0.217297;0.217099
327.000000;0.224307;0.224332;0.223908;0.224196;0.223957;0.223596;0.223804;0.223350;0.223049;0.223552;0.223116;0.222694;0.223084;0.222727;0.222601;0.222850;0.222258;0.222507;0.222041;0.222591;0.221943;0.221990;0.222024;0.221910;0.221777;0.221368;0.221324;0.220627;0.221231;0.221222;0.221285;0.220918;0.220629;0.220543;0.220849;0.220509;0.221300;0.221143;0.221066;0.220503;0.219544;0.220707;0.221010;0.219832;0.220306;0.220128;0.220136;0.220086;0.220211;0.219751;0.219657;0.219702;0.219772;0.219447;0.219684;0.219533;0.219471;0.219871;0.219719;0.219374;0.219636
327.500000;0.226646;0.226712;0.226422;0.226203;0.226284;0.225585;0.226056;0.225922;0.225707;0.225697;0.225292;0.225149;0.225310;0.224899;0.225204;0.225181;0.224854;0.224802;0.224167;0.224774;0.224322;0.224334;0.224075;0.224233;0.224417;0.223621;0.223770;0.223128;0.223490;0.223541;0.223642;0.223377;0.223194;0.223004;0.223305;0.223078;0.223484;0.223692;0.223132;0.222995;0.222014;0.222689;0.223303;0.222009;0.222674;0.222505;0.222564;0.222614;0.222444;0.222039;0.222163;0.221977;0.222421;0.221802;0.221932;0.222130;0.221872;0.222384;0.222213;0.221769;0.221750
328.000000;0.229332;0.228973;0.228732;0.227965;0.228460;0.228093;0.228181;0.228486;0.228295;0.227577;0.227489;0.228072;0.227546;0.227208;0.227783;0.227181;0.227033;0.226755;0.226358;0.227044;0.226709;0.227005;0.226017;0.226181;0.226856;0.225736;0.226010;0.226188;0.226089;0.226053;0.225884;0.225759;0.225722;0.225732;0.226027;0.225591;0.225293;0.225813;0.224751;0.225254;0.224899;0.224561;0.225275;0.224647;0.224898;0.224769;0.225110;0.225156;0.224445;0.224050;0.224463;0.224493;0.224550;0.224255;0.224097;0.224646;0.224385;0.224472;0.224268;0.224540;0.223585
328.500000;0.231767;0.231201;0.230800;0.230474;0.230761;0.230471;0.230471;0.230979;0.230451;0.230131;0.230020;0.230562;0.229791;0.229854;0.230180;0.229381;0.229158;0.229003;0.229099;0.229395;0.228660;0.229607;0.228486;0.228490;0.229276;0.228024;0.228289;0.228598;0.228802;0.228388;0.228009;0.228386;0.228039;0.228246;0.228427;0.227554;0.227776;0.227708;0.227210;0.227169;0.227344;0.227189;0.227524;0.227270;0.227241;0.226952;0.227272;0.227427;0.226739;0.226596;0.226853;0.226854;0.226862;0.226545;0.226566;0.226700;0.226455;0.226488;0.226624;0.226996;0.226146
329.000000;0.233891;0.233248;0.232786;0.233080;0.232928;0.232540;0.232741;0.233015;0.232434;0.232454;0.232332;0.232487;0.232040;0.232251;0.232232;0.231606;0.231393;0.231469;0.231670;0.231488;0.230536;0.231832;0.231078;0.230916;0.231326;0.230313;0.230440;0.230486;0.231117;0.230243;0.230173;0.230770;0.230188;0.230452;0.230350;0.229414;0.230198;0.229722;0.229926;0.229017;0.229299;0.229925;0.229841;0.229526;0.229433;0.228986;0.229344;0.229389;0.229110;0.229059;0.229084;0.228966;0.229115;0.228644;0.228912;0.228540;0.228307;0.228638;0.228941;0.228932;0.228752
329.500000;0.235855;0.235081;0.234851;0.234868;0.234732;0.234452;0.234730;0.234446;0.234612;0.233598;0.233906;0.234118;0.234269;0.233892;0.233896;0.233507;0.233683;0.233725;0.233330;0.233132;0.232835;0.233582;0.233162;0.232978;0.232749;0.232354;0.232282;0.232434;0.232691;0.231671;0.232433;0.232434;0.232309;0.232439;0.231960;0.231682;0.231693;0.232056;0.231908;0.231127;0.231134;0.231865;0.231834;0.231324;0.231193;0.230857;0.231728;0.231143;0.231212;0.230720;0.230921;0.230926;0.230882;0.230618;0.230709;0.230563;0.230394;0.230914;0.230675;0.230542;0.230537
330.000000;0.237658;0.237346;0.236910;0.236574;0.236829;0.236615;0.236655;0.236310;0.236802;0.235209;0.235617;0.235794;0.236411;0.235687;0.235519;0.235295;0.235627;0.235404;0.235089;0.235073;0.235275;0.235273;0.234996;0.234947;0.234394;0.234403;0.234228;0.234405;0.234122;0.233659;0.234344;0.234158;0.234540;0.234284;0.233734;0.233708;0.233628;0.234298;0.233742;0.233421;0.233292;0.233601;0.233760;0.233169;0.233002;0.232866;0.233991;0.232878;0.233404;0.232683;0.232981;0.232945;0.232634;0.232477;0.232737;0.232705;0.232690;0.232923;0.232291;0.232483;0.232599
330.500000;0.239377;0.239789;0.238886;0.238639;0.239136;0.238946;0.238535;0.238715;0.238771;0.237790;0.237782;0.237683;0.238319;0.237878;0.237414;0.237121;0.237243;0.236864;0.237271;0.237454;0.237350;0.237223;0.236827;0.236924;0.236662;0.236523;0.236418;0.236346;0.235922;0.236217;0.235874;0.236239;0.236737;0.236071;0.235879;0.235218;0.236249;0.236207;0.235787;0.235658;0.235613;0.235544;0.235730;0.235169;0.235035;0.235020;0.235852;0.234800;0.235614;0.235137;0.235175;0.234976;0.234634;0.234353;0.235069;0.234771;0.234898;0.234531;0.234199;0.234781;0.235054
331.000000;0.241217;0.241045;0.240792;0.240716;0.240547;0.240741;0.240094;0.240415;0.240407;0.239854;0.239715;0.239715;0.239829;0.239596;0.239674;0.238939;0.239124;0.239217;0.238988;0.239480;0.238607;0.239460;0.238683;0.238660;0.239087;0.238448;0.238502;0.238344;0.238194;0.238010;0.237622;0.238107;0.238474;0.237907;0.238158;0.236727;0.237966;0.237956;0.237739;0.237536;0.237263;0.237509;0.237530;0.236862;0.236923;0.236942;0.237470;0.237072;0.237159;0.236801;0.236460;0.236680;0.236669;0.236506;0.236706;0.236562;0.236575;0.236056;0.236435;0.236632;0.236465
331.500000;0.243139;0.242064;0.242635;0.242528;0.241623;0.242156;0.241777;0.241762;0.241857;0.241503;0.241436;0.241849;0.241370;0.241066;0.241552;0.240846;0.241106;0.241637;0.240540;0.241203;0.239805;0.241571;0.240578;0.240413;0.241098;0.240242;0.240231;0.240347;0.240340;0.239373;0.239691;0.239845;0.239969;0.239780;0.240173;0.238635;0.239206;0.239783;0.239474;0.239141;0.238683;0.239381;0.239140;0.238596;0.238686;0.238863;0.239079;0.239251;0.238445;0.238155;0.237486;0.238289;0.238589;0.238624;0.238195;0.238257;0.238054;0.237872;0.238556;0.238151;0.237664
332.000000;0.244926;0.244399;0.244371;0.243998;0.243483;0.243743;0.244094;0.243708;0.243422;0.243508;0.243245;0.243929;0.243454;0.242919;0.242373;0.242891;0.242741;0.242789;0.242576;0.243020;0.241914;0.243091;0.242487;0.242481;0.242354;0.242078;0.241630;0.242226;0.241745;0.241284;0.241792;0.241769;0.241665;0.241593;0.241660;0.240987;0.241163;0.241796;0.240998;0.240729;0.240685;0.241095;0.240697;0.240900;0.240480;0.241144;0.240832;0.240803;0.240244;0.240255;0.239484;0.240199;0.240307;0.240258;0.240462;0.240101;0.239952;0.240145;0.240145;0.239903;0.240067
332.500000;0.246304;0.246544;0.245833;0.245582;0.245502;0.245575;0.246148;0.245690;0.245443;0.245349;0.244829;0.245313;0.245575;0.244752;0.243619;0.244620;0.244304;0.243954;0.244248;0.244634;0.244002;0.244364;0.244268;0.244160;0.243563;0.243794;0.243504;0.243938;0.243311;0.243239;0.243376;0.243497;0.243401;0.243206;0.243189;0.242863;0.243177;0.243511;0.242333;0.242351;0.242564;0.242580;0.242479;0.243084;0.242039;0.243223;0.242511;0.242254;0.242201;0.242174;0.241941;0.242106;0.241796;0.241791;0.242314;0.241766;0.242212;0.242225;0.241935;0.241994;0.242041
333.000000;0.247440;0.247652;0.247027;0.247367;0.247080;0.247425;0.247455;0.247204;0.247613;0.246653;0.246180;0.246089;0.247270;0.246332;0.245958;0.245930;0.245842;0.245942;0.245323;0.245939;0.245410;0.245728;0.245885;0.245382;0.245244;0.245195;0.245897;0.245443;0.245347;0.244839;0.244567;0.244882;0.244907;0.244679;0.245037;0.244024;0.244709;0.244747;0.243696;0.243990;0.243914;0.243972;0.244545;0.244591;0.243436;0.244687;0.243954;0.243927;0.243968;0.243407;0.244119;0.243713;0.243201;0.243534;0.243290;0.243175;0.244302;0.243686;0.244051;0.244106;0.242854
333.500000;0.249136;0.249050;0.248283;0.248686;0.248362;0.248813;0.248729;0.248461;0.248706;0.247798;0.247940;0.247590;0.248572;0.248070;0.247966;0.247440;0.246841;0.247816;0.247024;0.247376;0.246673;0.247189;0.247497;0.247333;0.247179;0.246213;0.247425;0.246695;0.246711;0.246395;0.246531;0.246387;0.246023;0.246371;0.246684;0.245624;0.246123;0.246012;0.245541;0.245588;0.245366;0.245681;0.246538;0.245603;0.245347;0.245759;0.245256;0.245425;0.245643;0.244856;0.245649;0.245042;0.244875;0.245333;0.244835;0.244839;0.245325;0.244807;0.245294;0.245496;0.244303
334.000000;0.250791;0.250567;0.249667;0.249511;0.249462;0.249764;0.249945;0.249674;0.249212;0.248942;0.249538;0.249512;0.249511;0.249607;0.249138;0.249108;0.247757;0.249029;0.248761;0.248792;0.248079;0.248535;0.248871;0.248969;0.248759;0.247210;0.248015;0.247701;0.247483;0.247632;0.248532;0.247802;0.247063;0.247978;0.247815;0.247388;0.247433;0.247287;0.247317;0.246856;0.246875;0.247184;0.248058;0.246487;0.247039;0.246640;0.246579;0.246629;0.247100;0.246469;0.246672;0.246223;0.246576;0.246777;0.246587;0.246540;0.245768;0.245860;0.245843;0.246245;0.246241
334.500000;0.251233;0.251169;0.250992;0.250280;0.250436;0.250628;0.250646;0.250915;0.250476;0.249991;0.249924;0.250619;0.250189;0.250253;0.249811;0.250403;0.249387;0.249619;0.249157;0.249734;0.249546;0.249536;0.249647;0.248489;0.249405;0.248658;0.248566;0.248539;0.248502;0.248081;0.248997;0.248638;0.248452;0.248930;0.248447;0.248285;0.248417;0.248237;0.248089;0.247548;0.247973;0.247711;0.248852;0.247611;0.247306;0.247506;0.248023;0.247666;0.248084;0.247594;0.247588;0.247376;0.247742;0.247500;0.247248;0.247658;0.246847;0.247007;0.246743;0.247003;0.247344
335.000000;0.251663;0.251559;0.251883;0.251230;0.251405;0.251546;0.251257;0.251813;0.251743;0.250657;0.250201;0.251286;0.251226;0.250626;0.250540;0.250987;0.250616;0.250531;0.249805;0.250539;0.250451;0.250515;0.250333;0.248618;0.249871;0.250129;0.249646;0.249425;0.249591;0.248651;0.249338;0.249616;0.249588;0.249773;0.249265;0.249055;0.249238;0.249056;0.248658;0.248420;0.248828;0.248608;0.249413;0.248922;0.247802;0.248650;0.249270;0.248698;0.248713;0.248459;0.248381;0.248337;0.248471;0.248138;0.247891;0.248358;0.248378;0.248139;0.248020;0.248183;0.248187
335.500000;0.252907;0.252367;0.252190;0.252284;0.252222;0.252385;0.252116;0.252117;0.252205;0.250989;0.251201;0.251994;0.252535;0.251303;0.251532;0.250989;0.250759;0.252002;0.251592;0.251386;0.250609;0.251543;0.251203;0.250990;0.250695;0.251093;0.251099;0.250357;0.250402;0.249899;0.250584;0.250966;0.250117;0.250843;0.250489;0.250236;0.250036;0.249873;0.249715;0.249760;0.249610;0.250483;0.250095;0.250098;0.249597;0.249978;0.250065;0.249656;0.249279;0.249307;0.249037;0.249037;0.248994;0.249110;0.249277;0.248956;0.249704;0.249151;0.249205;0.249521;0.249216
336.000000;0.253702;0.253057;0.252332;0.252918;0.252279;0.252660;0.252884;0.252101;0.252247;0.251776;0.251990;0.252478;0.252482;0.252010;0.252215;0.251293;0.251080;0.252461;0.252383;0.251728;0.250977;0.251917;0.251602;0.252552;0.251247;0.251424;0.251639;0.250878;0.250891;0.250922;0.251313;0.251339;0.250753;0.251441;0.251119;0.250959;0.250687;0.250404;0.250707;0.250432;0.250133;0.251328;0.250566;0.250597;0.250979;0.250612;0.250552;0.250055;0.250160;0.249903;0.249772;0.249764;0.249408;0.249854;0.250207;0.249584;0.250163;0.250099;0.249559;0.249712;0.249559
336.500000;0.253880;0.253465;0.252837;0.253253;0.252362;0.252583;0.253509;0.252408;0.252539;0.253070;0.252381;0.252910;0.251908;0.252729;0.252612;0.252087;0.251926;0.252272;0.252243;0.251860;0.251930;0.251983;0.251713;0.252600;0.251668;0.251676;0.251468;0.251365;0.251324;0.251556;0.251502;0.251188;0.251588;0.251732;0.251335;0.251232;0.251339;0.251092;0.251373;0.250839;0.250602;0.251121;0.251029;0.250753;0.251505;0.250634;0.251040;0.250446;0.251240;0.250528;0.250619;0.250523;0.250048;0.250494;0.250708;0.250371;0.250389;0.250856;0.249623;0.249624;0.249717
337.000000;0.254263;0.253802;0.254017;0.253836;0.253930;0.252869;0.254159;0.253652;0.253619;0.254156;0.252908;0.253710;0.253225;0.253612;0.253220;0.252904;0.252701;0.253163;0.252985;0.252659;0.253106;0.252769;0.252346;0.252737;0.252653;0.252632;0.251926;0.252628;0.252093;0.252288;0.252285;0.252242;0.252162;0.252502;0.252198;0.251796;0.252267;0.252650;0.251796;0.252358;0.251456;0.251507;0.252024;0.251447;0.251967;0.250905;0.251848;0.251909;0.251989;0.251710;0.251402;0.251078;0.251295;0.251616;0.251779;0.251364;0.251700;0.251218;0.250715;0.251414;0.251063
337.500000;0.254605;0.253911;0.254712;0.254109;0.254934;0.253413;0.254454;0.254662;0.254425;0.254110;0.253491;0.254058;0.254476;0.254052;0.253801;0.253471;0.253108;0.253841;0.253550;0.253678;0.253521;0.253499;0.253155;0.253148;0.253478;0.253118;0.252708;0.253471;0.252916;0.252790;0.253019;0.253514;0.252638;0.253177;0.253102;0.252375;0.252989;0.253455;0.251869;0.253322;0.252297;0.252139;0.252942;0.252189;0.252225;0.251483;0.252728;0.253078;0.252095;0.252512;0.251795;0.251472;0.252516;0.252394;0.252668;0.252040;0.252781;0.251580;0.251923;0.252968;0.252288
338.000000;0.254444;0.253698;0.254020;0.253580;0.253827;0.253756;0.254101;0.254398;0.254089;0.252903;0.253832;0.253487;0.253794;0.253683;0.253830;0.253651;0.253168;0.253100;0.252895;0.254111;0.252831;0.253357;0.253577;0.253462;0.253459;0.252388;0.253074;0.252982;0.253361;0.252739;0.252993;0.253659;0.253133;0.253098;0.253271;0.252542;0.253051;0.252526;0.251670;0.252379;0.252595;0.252327;0.253136;0.252423;0.252096;0.252064;0.253134;0.252772;0.251778;0.252180;0.251700;0.251744;0.252986;0.252222;0.252555;0.252049;0.252368;0.252160;0.252143;0.252332;0.252119
338.500000;0.253803;0.253549;0.252999;0.252924;0.253382;0.253359;0.253503;0.253740;0.253616;0.252707;0.253716;0.253407;0.253442;0.253381;0.252824;0.253440;0.253334;0.252637;0.252596;0.253556;0.252699;0.253061;0.253592;0.253322;0.253285;0.252397;0.252772;0.252715;0.253259;0.252563;0.252960;0.252988;0.253099;0.252650;0.253037;0.252444;0.252775;0.252453;0.251866;0.251676;0.252290;0.252376;0.252922;0.252666;0.252123;0.252228;0.252387;0.252446;0.252239;0.251721;0.251672;0.251690;0.252710;0.252258;0.252067;0.251947;0.251713;0.252237;0.251848;0.251799;0.251812
339.000000;0.252993;0.253631;0.252604;0.252646;0.254163;0.252486;0.253153;0.253439;0.253445;0.253494;0.253335;0.253893;0.253903;0.253412;0.251566;0.253049;0.253404;0.252940;0.253157;0.252644;0.253277;0.252963;0.253315;0.252824;0.253369;0.253307;0.252257;0.253043;0.252842;0.252519;0.253198;0.252395;0.252462;0.252323;0.252741;0.252318;0.252678;0.253567;0.252352;0.252095;0.251777;0.252410;0.252789;0.252914;0.252425;0.252042;0.251304;0.252542;0.253260;0.251917;0.251944;0.251647;0.252363;0.252836;0.251886;0.252058;0.251771;0.251964;0.251686;0.252338;0.252082
339.500000;0.252489;0.253763;0.253176;0.252791;0.254054;0.252135;0.253381;0.253680;0.253171;0.252991;0.253196;0.253548;0.253450;0.253270;0.251784;0.252828;0.252625;0.252940;0.253616;0.252741;0.253036;0.252829;0.252904;0.252463;0.253564;0.253235;0.252439;0.252870;0.252619;0.252556;0.253274;0.252865;0.251750;0.252445;0.252538;0.252351;0.253181;0.253602;0.252262;0.252672;0.251712;0.252241;0.253135;0.252592;0.252589;0.252015;0.251864;0.252182;0.253231;0.252853;0.252284;0.252331;0.252941;0.253170;0.252357;0.252291;0.252622;0.252327;0.252109;0.252922;0.252663
340.000000;0.252273;0.253457;0.253495;0.252658;0.253284;0.252377;0.253397;0.253593;0.252701;0.252070;0.252965;0.252779;0.252667;0.252934;0.252441;0.252646;0.251767;0.252752;0.253533;0.253049;0.252202;0.252712;0.252454;0.252110;0.253335;0.252361;0.252604;0.252318;0.252319;0.252590;0.252852;0.253407;0.251434;0.252527;0.252404;0.252312;0.253305;0.252859;0.251820;0.252617;0.251605;0.251962;0.253450;0.252240;0.252424;0.251916;0.252796;0.251705;0.252625;0.253175;0.252252;0.252736;0.253437;0.252753;0.252551;0.252311;0.253080;0.252506;0.252568;0.252937;0.253082
340.500000;0.252122;0.252533;0.252486;0.251674;0.252696;0.252689;0.252477;0.252437;0.252097;0.252182;0.252251;0.252414;0.252572;0.252533;0.251998;0.252267;0.251706;0.252698;0.252862;0.252406;0.251633;0.252651;0.252032;0.251571;0.252383;0.251634;0.251909;0.251912;0.251624;0.252473;0.251909;0.252778;0.251663;0.252076;0.252226;0.251921;0.252213;0.252435;0.251516;0.251740;0.250941;0.251721;0.253070;0.252412;0.251917;0.251442;0.252315;0.251703;0.252401;0.251851;0.251646;0.251857;0.252733;0.251685;0.251655;0.251896;0.252214;0.251640;0.252362;0.252285;0.252977
341.000000;0.251889;0.252063;0.251561;0.250629;0.251619;0.252132;0.251567;0.251220;0.251403;0.252118;0.251616;0.252005;0.252240;0.251942;0.251247;0.251820;0.251559;0.252038;0.251879;0.251562;0.251561;0.252239;0.251715;0.251314;0.251568;0.251327;0.251335;0.251636;0.251130;0.251926;0.251155;0.251688;0.251771;0.251667;0.251870;0.251294;0.251338;0.252118;0.251114;0.251217;0.250664;0.251450;0.252121;0.252181;0.251238;0.251084;0.251611;0.251816;0.252070;0.250663;0.251194;0.251035;0.252111;0.251350;0.250877;0.251464;0.251469;0.251200;0.251693;0.251671;0.252526
341.500000;0.251403;0.251939;0.251217;0.250085;0.250140;0.250702;0.250953;0.250492;0.250586;0.251131;0.251037;0.251184;0.251191;0.251082;0.250502;0.251223;0.250657;0.250736;0.250702;0.250944;0.251478;0.251374;0.251307;0.251205;0.251109;0.251029;0.251170;0.251070;0.250865;0.251034;0.250812;0.250835;0.251297;0.251467;0.251269;0.250547;0.251181;0.251555;0.250576;0.251209;0.250875;0.251091;0.250989;0.251147;0.250546;0.250932;0.251359;0.251535;0.251340;0.250438;0.251135;0.250857;0.251945;0.251775;0.250719;0.251167;0.251359;0.251406;0.250933;0.251269;0.251759
342.000000;0.250472;0.250529;0.250332;0.249908;0.249451;0.249539;0.249805;0.249824;0.249524;0.249706;0.249659;0.249996;0.249927;0.250000;0.249090;0.250126;0.249098;0.249764;0.249223;0.250145;0.250263;0.250402;0.250337;0.250333;0.250254;0.249793;0.250499;0.249571;0.250045;0.250294;0.250354;0.250373;0.250266;0.250900;0.250434;0.249701;0.250654;0.250565;0.250205;0.250421;0.250384;0.250618;0.250137;0.249909;0.249930;0.250410;0.250929;0.250488;0.250482;0.250178;0.250871;0.250482;0.251043;0.251183;0.250379;0.250675;0.250798;0.250570;0.250393;0.250482;0.250477
342.500000;0.249228;0.248604;0.248819;0.249085;0.249026;0.248621;0.248298;0.248786;0.248211;0.248541;0.247944;0.248654;0.248703;0.248931;0.247796;0.248931;0.247794;0.248928;0.247966;0.248960;0.248468;0.249272;0.249007;0.249058;0.249292;0.248310;0.249318;0.248051;0.248978;0.249550;0.249642;0.249817;0.248963;0.249611;0.249269;0.248896;0.249679;0.249460;0.249592;0.248956;0.249136;0.249714;0.249469;0.248987;0.249435;0.249266;0.249980;0.249238;0.249500;0.249224;0.249836;0.249729;0.249434;0.249848;0.249639;0.249762;0.249861;0.249097;0.249725;0.249461;0.249242
343.000000;0.247980;0.247637;0.247232;0.246888;0.247790;0.247492;0.247117;0.247220;0.246853;0.248016;0.246809;0.247397;0.247585;0.248093;0.247607;0.248112;0.247513;0.247701;0.247479;0.247509;0.247274;0.247910;0.247849;0.248152;0.248713;0.247650;0.248145;0.247671;0.248259;0.248444;0.248761;0.248619;0.247791;0.247733;0.247842;0.248163;0.248693;0.248624;0.248356;0.247635;0.247767;0.248253;0.248685;0.248523;0.248924;0.247688;0.248601;0.248543;0.248363;0.247554;0.247943;0.248805;0.247843;0.248931;0.248659;0.248415;0.249067;0.248289;0.248498;0.248645;0.248728
343.500000;0.246991;0.246530;0.246080;0.245332;0.246331;0.246600;0.246547;0.245800;0.246132;0.247050;0.245988;0.246227;0.246529;0.247242;0.247100;0.246815;0.246884;0.246812;0.247041;0.246512;0.246607;0.246971;0.247163;0.247167;0.247466;0.246805;0.247336;0.247278;0.247177;0.247250;0.247711;0.247234;0.247055;0.246568;0.246976;0.246878;0.247697;0.247679;0.247710;0.246803;0.246906;0.247336;0.247854;0.247536;0.247658;0.246668;0.247646;0.247942;0.247496;0.246522;0.246668;0.247768;0.246794;0.248355;0.247587;0.247094;0.247942;0.248137;0.247270;0.247843;0.248394
344.000000;0.245937;0.244618;0.245265;0.245059;0.245116;0.245864;0.246058;0.244726;0.245793;0.245167;0.245075;0.245025;0.245390;0.246014;0.245523;0.244893;0.245313;0.246335;0.246064;0.245993;0.245894;0.246438;0.246598;0.245751;0.245369;0.245265;0.246653;0.246094;0.245553;0.246143;0.246419;0.246017;0.246456;0.246364;0.246587;0.245099;0.246453;0.246422;0.247659;0.246123;0.246377;0.247115;0.246884;0.245859;0.245622;0.246378;0.247229;0.247007;0.246834;0.246427;0.246370;0.246536;0.246266;0.247536;0.246387;0.246021;0.246426;0.247983;0.246367;0.246858;0.247628
344.500000;0.243736;0.242762;0.243859;0.243838;0.243855;0.244181;0.244170;0.243260;0.244134;0.243299;0.243870;0.243613;0.243922;0.244086;0.243950;0.243654;0.244042;0.244987;0.244620;0.244773;0.244336;0.245090;0.245009;0.244127;0.243984;0.243957;0.245100;0.244713;0.244389;0.244933;0.244764;0.244805;0.244922;0.245464;0.245084;0.244042;0.244591;0.245164;0.245990;0.244494;0.244905;0.245965;0.245370;0.244840;0.244044;0.245532;0.246145;0.245785;0.245467;0.245593;0.245311;0.244915;0.245528;0.245648;0.244794;0.244920;0.245356;0.246719;0.245417;0.245698;0.246188
345.000000;0.241126;0.241290;0.241944;0.241704;0.242416;0.241947;0.241700;0.241632;0.241751;0.241958;0.242281;0.242299;0.242228;0.242167;0.242740;0.242973;0.242858;0.242742;0.242912;0.242690;0.242508;0.243066;0.242911;0.242469;0.243311;0.243025;0.243060;0.243293;0.243250;0.243491;0.243319;0.243258;0.243044;0.243696;0.243138;0.243281;0.242794;0.243874;0.243364;0.242557;0.242908;0.243990;0.243815;0.244110;0.243028;0.244026;0.244423;0.244320;0.243460;0.243888;0.243810;0.243331;0.244495;0.243445;0.243321;0.243810;0.244498;0.244632;0.244034;0.244318;0.244556
345.500000;0.239747;0.240041;0.240182;0.240121;0.240780;0.240414;0.240666;0.240562;0.240483;0.241133;0.240352;0.241460;0.240600;0.241311;0.241642;0.241804;0.240757;0.240506;0.241195;0.240400;0.241607;0.241405;0.241626;0.240892;0.242277;0.241992;0.241663;0.241655;0.241053;0.241784;0.242807;0.241149;0.242209;0.241916;0.242547;0.241551;0.242143;0.242339;0.242035;0.241783;0.241717;0.242368;0.243013;0.242382;0.241963;0.242545;0.242894;0.242680;0.241532;0.242218;0.243282;0.242487;0.243455;0.242421;0.242710;0.242829;0.243005;0.242827;0.242084;0.242706;0.243452
346.000000;0.239006;0.238844;0.238591;0.238978;0.239118;0.239581;0.240442;0.239553;0.239751;0.240023;0.238982;0.240059;0.239303;0.240455;0.240546;0.240363;0.239126;0.239455;0.240031;0.239210;0.240829;0.240729;0.240372;0.239829;0.240803;0.240676;0.240790;0.240269;0.239711;0.240384;0.242006;0.239897;0.241474;0.240624;0.241946;0.240228;0.241656;0.241152;0.241314;0.241188;0.240850;0.241221;0.241772;0.241030;0.241185;0.241389;0.241874;0.241574;0.240384;0.240924;0.242485;0.242190;0.242299;0.241923;0.241835;0.241692;0.241565;0.241704;0.241134;0.241652;0.242330
346.500000;0.237768;0.237496;0.237014;0.237758;0.237653;0.238675;0.239491;0.238081;0.238431;0.238166;0.238370;0.237953;0.238363;0.238591;0.239196;0.239053;0.238842;0.239546;0.239422;0.239301;0.239194;0.240492;0.238450;0.239138;0.239321;0.239007;0.239802;0.239275;0.239954;0.239429;0.239960;0.239896;0.239774;0.239686;0.240054;0.239925;0.240286;0.240475;0.239963;0.239623;0.239620;0.240190;0.239600;0.240744;0.240598;0.240358;0.240999;0.240995;0.240012;0.239931;0.240447;0.241462;0.240824;0.240842;0.239932;0.240271;0.240626;0.240918;0.241407;0.241194;0.240660
347.000000;0.235521;0.235510;0.234939;0.235961;0.235950;0.236407;0.236889;0.236193;0.236128;0.236058;0.236537;0.236871;0.236953;0.236238;0.236885;0.237323;0.237631;0.238124;0.237859;0.238018;0.236806;0.238440;0.236400;0.237291;0.237959;0.236690;0.237901;0.237425;0.238133;0.237523;0.237554;0.238289;0.237461;0.237748;0.237927;0.237906;0.238390;0.238850;0.237784;0.237434;0.238009;0.238453;0.238127;0.238905;0.238730;0.238386;0.238916;0.239048;0.238796;0.238367;0.238382;0.238979;0.238698;0.238857;0.238027;0.238684;0.238778;0.239037;0.239529;0.239335;0.238570
347.500000;0.233301;0.233537;0.233061;0.233944;0.234033;0.233831;0.234054;0.234231;0.233878;0.234265;0.234249;0.235966;0.235127;0.234201;0.234542;0.235471;0.235487;0.235759;0.235777;0.235626;0.234648;0.235753;0.234772;0.235232;0.236564;0.234658;0.235772;0.235311;0.235208;0.235349;0.235718;0.235696;0.235553;0.235587;0.236094;0.235345;0.236640;0.236660;0.235772;0.235626;0.236294;0.236499;0.237245;0.236263;0.236431;0.236477;0.236618;0.236637;0.236989;0.236603;0.236862;0.236270;0.236653;0.236822;0.236573;0.237167;0.236592;0.236797;0.236765;0.236995;0.236720
348.000000;0.231929;0.232108;0.231948;0.231910;0.231816;0.232116;0.232280;0.232125;0.232444;0.232757;0.232835;0.233310;0.233005;0.232571;0.232994;0.233743;0.233204;0.233904;0.233975;0.233303;0.233177;0.234225;0.233491;0.234269;0.234620;0.233596;0.234069;0.233757;0.233496;0.233910;0.234527;0.233751;0.234464;0.234249;0.234141;0.234360;0.235129;0.234636;0.234577;0.234580;0.234413;0.234819;0.235747;0.234463;0.234846;0.235740;0.235309;0.235164;0.235268;0.235086;0.235484;0.234996;0.235212;0.235313;0.235199;0.235587;0.234999;0.235226;0.235554;0.235654;0.235330
348.500000;0.230237;0.230457;0.230243;0.229580;0.229444;0.230082;0.230517;0.229769;0.230781;0.230970;0.231019;0.230077;0.230581;0.230420;0.231053;0.231645;0.230816;0.231860;0.231848;0.230945;0.231223;0.232605;0.231720;0.232927;0.231856;0.231999;0.232095;0.231873;0.231884;0.232275;0.232786;0.231945;0.232836;0.232596;0.231797;0.233285;0.233189;0.232499;0.232998;0.232771;0.232299;0.232647;0.233176;0.232781;0.232952;0.234167;0.233613;0.233463;0.232904;0.233071;0.233458;0.233714;0.233549;0.233586;0.233411;0.233533;0.233422;0.233423;0.234046;0.234035;0.233562
349.000000;0.227515;0.228101;0.227218;0.227057;0.227452;0.227104;0.228120;0.227558;0.228205;0.228753;0.228099;0.228102;0.228323;0.227532;0.228113;0.229095;0.228604;0.229157;0.229300;0.228718;0.228355;0.229924;0.229159;0.230073;0.228889;0.229034;0.229525;0.229293;0.229374;0.229877;0.229891;0.229874;0.229925;0.229934;0.229328;0.230538;0.230662;0.230281;0.230265;0.229495;0.230243;0.229772;0.230100;0.230665;0.230217;0.230511;0.230642;0.230799;0.229892;0.230327;0.230733;0.231204;0.231232;0.231290;0.231164;0.231056;0.231410;0.230822;0.230748;0.231344;0.231054
349.500000;0.224870;0.225337;0.224589;0.224275;0.225426;0.224591;0.226007;0.225509;0.225429;0.226361;0.225871;0.226227;0.226313;0.225141;0.225551;0.226394;0.226273;0.226259;0.227225;0.226615;0.226248;0.227268;0.226625;0.227142;0.226852;0.226665;0.226811;0.227183;0.226752;0.227568;0.227040;0.227574;0.227285;0.227500;0.226785;0.227287;0.228208;0.228036;0.227446;0.227017;0.227991;0.227186;0.227959;0.228526;0.227910;0.227616;0.227943;0.228512;0.227838;0.227793;0.228470;0.228493;0.228899;0.229038;0.228680;0.228456;0.228897;0.228117;0.227733;0.229246;0.228554
350.000000;0.222847;0.222739;0.222866;0.221732;0.223390;0.223032;0.224095;0.223525;0.223131;0.223932;0.224447;0.223747;0.224362;0.223655;0.223783;0.223921;0.224071;0.223788;0.225409;0.224706;0.224930;0.225131;0.224552;0.224928;0.225578;0.225175;0.224440;0.225600;0.224690;0.225561;0.224871;0.225129;0.225319;0.225557;0.224533;0.224761;0.226032;0.225902;0.225267;0.225810;0.225657;0.225322;0.226653;0.226451;0.226395;0.226083;0.226147;0.226809;0.226650;0.225921;0.226728;0.226300;0.226673;0.227052;0.226302;0.226100;0.226448;0.225977;0.226000;0.227784;0.226576
350.500000;0.221161;0.220907;0.221110;0.220318;0.221882;0.221725;0.221379;0.221536;0.221592;0.221521;0.222204;0.221077;0.222244;0.222470;0.222084;0.222061;0.222688;0.222234;0.222750;0.223172;0.222818;0.223144;0.222836;0.223157;0.223814;0.223057;0.222742;0.223511;0.223372;0.223336;0.223196;0.222701;0.223128;0.223303;0.223172;0.223531;0.223877;0.224085;0.223772;0.224324;0.223766;0.223921;0.224735;0.224190;0.224923;0.224007;0.224645;0.224682;0.224680;0.224494;0.224544;0.224628;0.224179;0.225075;0.224395;0.224355;0.224946;0.224713;0.224889;0.225366;0.225151
351.000000;0.219171;0.219104;0.218820;0.218782;0.220025;0.219616;0.218505;0.219235;0.219694;0.219292;0.219330;0.218698;0.220057;0.220554;0.220044;0.220429;0.220635;0.220377;0.219980;0.221317;0.220189;0.220820;0.221034;0.221063;0.221300;0.220638;0.220972;0.221074;0.221798;0.220762;0.221389;0.220534;0.220767;0.220905;0.221668;0.221994;0.221696;0.221918;0.222125;0.222112;0.221770;0.222384;0.222126;0.221808;0.222668;0.221597;0.222735;0.222267;0.222163;0.222634;0.222137;0.222796;0.221790;0.222683;0.222417;0.222754;0.223052;0.223223;0.223127;0.222504;0.223259
351.500000;0.216446;0.216515;0.216012;0.215957;0.216982;0.216272;0.216286;0.216536;0.216592;0.217205;0.216635;0.216829;0.217867;0.217426;0.217566;0.218359;0.216863;0.217244;0.217934;0.218513;0.217831;0.217990;0.218740;0.218202;0.218364;0.218541;0.218456;0.218645;0.219075;0.218058;0.219052;0.218638;0.218536;0.218760;0.219034;0.218819;0.219412;0.218980;0.219568;0.219345;0.219099;0.220190;0.219296;0.219497;0.219452;0.219545;0.220080;0.219957;0.219853;0.219818;0.219965;0.220218;0.219835;0.219772;0.219853;0.220662;0.219682;0.220549;0.220054;0.220188;0.220188
352.000000;0.213407;0.213601;0.213397;0.213304;0.213597;0.213135;0.213970;0.214103;0.213666;0.214508;0.214284;0.214927;0.215254;0.214415;0.214903;0.215317;0.213868;0.214385;0.215511;0.215272;0.215548;0.215327;0.215963;0.215398;0.215565;0.215917;0.215871;0.215622;0.215876;0.215775;0.216759;0.216270;0.216144;0.216643;0.216239;0.215772;0.216561;0.216391;0.216471;0.216377;0.216301;0.217348;0.216423;0.217317;0.216724;0.217181;0.217282;0.217388;0.217528;0.217114;0.217635;0.217268;0.217593;0.217154;0.217232;0.217916;0.216883;0.217675;0.217159;0.218090;0.217156
352.500000;0.210465;0.210969;0.211103;0.211244;0.210650;0.210686;0.211320;0.211933;0.211412;0.211350;0.211953;0.212518;0.212402;0.212061;0.212272;0.211926;0.212245;0.212372;0.212381;0.212477;0.213001;0.213029;0.212969;0.212893;0.213094;0.212784;0.213394;0.212348;0.213003;0.213715;0.214452;0.213484;0.213642;0.214361;0.213845;0.213588;0.213597;0.214354;0.213513;0.213570;0.213829;0.214345;0.213746;0.215053;0.214867;0.214419;0.214745;0.214570;0.215019;0.214786;0.215053;0.214466;0.214828;0.215081;0.214882;0.214947;0.215281;0.215180;0.215094;0.215768;0.214803
353.000000;0.207830;0.209002;0.208576;0.208701;0.208453;0.208111;0.208892;0.209261;0.209018;0.208834;0.209034;0.209457;0.210119;0.209777;0.209762;0.209773;0.210051;0.210302;0.209393;0.210945;0.209974;0.210657;0.210183;0.210164;0.210711;0.210260;0.210504;0.210179;0.210942;0.210945;0.211353;0.211189;0.211474;0.211900;0.211603;0.211355;0.211782;0.211882;0.211350;0.211218;0.211774;0.211958;0.211573;0.212297;0.212837;0.211968;0.212461;0.212000;0.212416;0.212019;0.212559;0.212216;0.212021;0.213041;0.212694;0.212606;0.213443;0.212831;0.213191;0.212979;0.212784
353.500000;0.205326;0.206656;0.205870;0.205869;0.206400;0.205453;0.206421;0.206282;0.206238;0.206416;0.205944;0.206327;0.207873;0.207418;0.207139;0.207833;0.207221;0.207732;0.206820;0.209051;0.207020;0.208036;0.207527;0.207548;0.208119;0.208152;0.207522;0.208364;0.208667;0.207761;0.208019;0.208703;0.209054;0.209278;0.209150;0.208714;0.209732;0.208868;0.209197;0.209044;0.209587;0.209715;0.209517;0.209308;0.209919;0.209440;0.210147;0.209399;0.209796;0.208914;0.209813;0.209922;0.209418;0.210507;0.210309;0.210449;0.210657;0.210304;0.210720;0.209993;0.210622
354.000000;0.202763;0.203048;0.203279;0.203325;0.203736;0.203064;0.203583;0.203499;0.203293;0.203300;0.203386;0.203765;0.204926;0.205006;0.204170;0.204626;0.204497;0.204690;0.204581;0.205187;0.204724;0.205232;0.204794;0.205477;0.205199;0.205717;0.204948;0.205630;0.205200;0.204936;0.205384;0.205262;0.205793;0.206530;0.206338;0.205799;0.205903;0.205784;0.206181;0.206611;0.206749;0.206894;0.207025;0.206538;0.206107;0.206352;0.207500;0.206437;0.207147;0.206033;0.206558;0.206966;0.207031;0.207352;0.207469;0.207692;0.207038;0.207475;0.207366;0.207258;0.207995
354.500000;0.200463;0.200095;0.200734;0.200632;0.200633;0.200705;0.201194;0.200718;0.200811;0.200610;0.201250;0.201346;0.202080;0.202210;0.201098;0.201544;0.201887;0.201797;0.202407;0.201789;0.202467;0.202571;0.202138;0.203155;0.202407;0.202626;0.202353;0.202492;0.202132;0.202647;0.203266;0.202461;0.202745;0.203656;0.203763;0.203232;0.202634;0.203370;0.203482;0.203835;0.203800;0.203982;0.204135;0.203869;0.202949;0.203710;0.204527;0.203892;0.204161;0.203773;0.203884;0.204233;0.204522;0.204658;0.204560;0.204578;0.203958;0.204889;0.204126;0.204923;0.205145
355.000000;0.198258;0.198302;0.197929;0.197586;0.197517;0.198050;0.199138;0.197835;0.198739;0.198641;0.199041;0.198582;0.199614;0.199078;0.198258;0.199195;0.199259;0.199258;0.200042;0.199748;0.199740;0.200190;0.199550;0.200205;0.199878;0.199191;0.199575;0.199548;0.200126;0.200598;0.201063;0.200648;0.200221;0.200633;0.201408;0.200960;0.200710;0.201510;0.201433;0.200791;0.201047;0.201232;0.201184;0.201117;0.200769;0.201660;0.201415;0.201779;0.201011;0.201862;0.201895;0.201953;0.201713;0.202468;0.201662;0.201498;0.201824;0.202473;0.201535;0.202658;0.202211
355.500000;0.195276;0.195655;0.194433;0.194556;0.194813;0.194878;0.195900;0.195042;0.196067;0.196117;0.196075;0.195280;0.196720;0.196191;0.195902;0.196422;0.196502;0.196578;0.197310;0.196930;0.196561;0.197869;0.196710;0.197139;0.197170;0.196372;0.197019;0.196942;0.197923;0.198062;0.198015;0.197960;0.197180;0.197440;0.198298;0.197984;0.197932;0.198954;0.198745;0.197650;0.198185;0.198271;0.198654;0.198175;0.197948;0.198880;0.198463;0.198881;0.198478;0.199248;0.199118;0.199119;0.198750;0.199253;0.198340;0.198701;0.199450;0.199266;0.199139;0.199655;0.199045
356.000000;0.191810;0.192402;0.191045;0.191566;0.192084;0.191722;0.192206;0.192280;0.192846;0.192849;0.192802;0.192080;0.193445;0.193362;0.193362;0.193359;0.193601;0.193719;0.194284;0.193445;0.193322;0.195088;0.193526;0.194122;0.194164;0.193993;0.194478;0.194242;0.195008;0.194851;0.194567;0.194411;0.193960;0.194399;0.194574;0.194567;0.194524;0.195731;0.195411;0.194524;0.195088;0.195126;0.196049;0.195164;0.194644;0.195530;0.195527;0.195372;0.196007;0.195818;0.195770;0.195734;0.195805;0.195571;0.195160;0.195966;0.196416;0.195965;0.196529;0.196137;0.195771
356.500000;0.188712;0.189758;0.188734;0.188519;0.188754;0.189232;0.189567;0.189394;0.189682;0.189411;0.190028;0.189782;0.190310;0.190152;0.189942;0.190708;0.190601;0.190901;0.191133;0.190528;0.190441;0.191493;0.190205;0.191120;0.191048;0.191330;0.191519;0.190968;0.191525;0.191282;0.191617;0.191062;0.191448;0.191843;0.191078;0.191560;0.191880;0.192495;0.192136;0.191512;0.191847;0.192103;0.192694;0.192276;0.191873;0.192483;0.192409;0.192167;0.192683;0.192138;0.192835;0.192402;0.193007;0.192812;0.192878;0.192930;0.193023;0.193727;0.193444;0.192893;0.192673
357.000000;0.186147;0.186888;0.186225;0.185793;0.185834;0.186788;0.186987;0.186529;0.186691;0.186530;0.187233;0.187901;0.187522;0.187115;0.187066;0.188012;0.187638;0.188177;0.187887;0.187926;0.187671;0.188109;0.187570;0.188350;0.188385;0.188340;0.188427;0.187776;0.188150;0.188354;0.188995;0.188240;0.189194;0.189353;0.188641;0.189001;0.189653;0.189136;0.189080;0.188881;0.188918;0.189543;0.189643;0.189502;0.189445;0.189628;0.189803;0.189581;0.189517;0.189102;0.190008;0.189533;0.190314;0.190412;0.190519;0.189790;0.190327;0.191438;0.189972;0.190445;0.190027
357.500000;0.183771;0.183380;0.182873;0.183402;0.183709;0.183846;0.183763;0.183655;0.183800;0.184234;0.184026;0.185603;0.184889;0.184527;0.185135;0.184849;0.184777;0.185312;0.184626;0.185226;0.184762;0.185409;0.185697;0.185678;0.186130;0.185179;0.185568;0.185178;0.185267;0.186108;0.186242;0.185788;0.186469;0.186534;0.187010;0.186482;0.187174;0.185740;0.186205;0.186534;0.186357;0.187198;0.187279;0.186662;0.186871;0.186743;0.187654;0.187274;0.187093;0.186937;0.186969;0.187129;0.187500;0.187663;0.187378;0.186812;0.188341;0.188293;0.186497;0.188383;0.187697
358.000000;0.180738;0.180305;0.179913;0.180591;0.181113;0.180535;0.180681;0.180360;0.180843;0.181389;0.180762;0.182115;0.181728;0.181800;0.182078;0.181370;0.181901;0.181748;0.181551;0.182363;0.181724;0.182435;0.183208;0.182346;0.183140;0.182021;0.183069;0.182921;0.182548;0.182848;0.182926;0.183077;0.182738;0.183366;0.184252;0.183261;0.184014;0.182952;0.183361;0.183725;0.183446;0.183928;0.184229;0.183407;0.183720;0.183811;0.184414;0.184135;0.184498;0.184623;0.183889;0.184590;0.184154;0.184451;0.183925;0.184083;0.185156;0.184927;0.183682;0.184990;0.184896
358.500000;0.177277;0.177585;0.177088;0.177349;0.177851;0.177257;0.177784;0.177152;0.177917;0.178064;0.177667;0.178199;0.178326;0.178745;0.177915;0.178143;0.178797;0.178290;0.178709;0.179314;0.178721;0.179290;0.179813;0.178945;0.179503;0.178991;0.180350;0.180209;0.179717;0.179121;0.179659;0.180129;0.178802;0.180176;0.180658;0.179770;0.180512;0.180491;0.180475;0.180402;0.180227;0.180301;0.180790;0.180100;0.180343;0.180795;0.180684;0.180575;0.181419;0.181495;0.180895;0.181545;0.180750;0.181076;0.180800;0.181191;0.181114;0.181648;0.181443;0.180909;0.181648
359.000000;0.174194;0.174412;0.173361;0.174167;0.174525;0.174387;0.174619;0.174840;0.175185;0.175073;0.174789;0.175265;0.175451;0.175527;0.174185;0.175657;0.175337;0.176160;0.175996;0.176108;0.175933;0.176661;0.176119;0.176603;0.176159;0.176127;0.176657;0.176312;0.176619;0.176631;0.177340;0.177303;0.175969;0.177337;0.177777;0.176999;0.177350;0.177547;0.177508;0.177038;0.177206;0.177713;0.178161;0.177393;0.177431;0.177639;0.178183;0.177784;0.178085;0.177515;0.177985;0.177970;0.178079;0.177960;0.178380;0.177662;0.177912;0.178422;0.179112;0.178019;0.178485
359.500000;0.171057;0.171014;0.169876;0.171020;0.171203;0.171432;0.171453;0.172271;0.172134;0.172113;0.172050;0.172380;0.172554;0.172260;0.171490;0.172678;0.172102;0.173582;0.173142;0.172981;0.173123;0.173736;0.172674;0.173993;0.173390;0.173212;0.172870;0.172493;0.173259;0.174039;0.174518;0.174102;0.173291;0.174301;0.174637;0.174314;0.174185;0.174254;0.174283;0.173927;0.174136;0.175114;0.175301;0.174681;0.174540;0.174375;0.175800;0.175032;0.174633;0.174001;0.174861;0.174494;0.175199;0.174837;0.175570;0.174451;0.175095;0.175217;0.175936;0.175334;0.175266
360.000000;0.167554;0.167780;0.167444;0.167795;0.167795;0.168062;0.168516;0.168685;0.168541;0.168815;0.169145;0.168770;0.169173;0.169038;0.169459;0.168625;0.169351;0.169456;0.169917;0.169934;0.170007;0.170061;0.169630;0.170186;0.170842;0.170090;0.169796;0.169689;0.169774;0.170289;0.170366;0.170344;0.169959;0.170749;0.170643;0.171033;0.170742;0.170944;0.170815;0.171010;0.170791;0.171577;0.171496;0.171488;0.171257;0.171099;0.172407;0.171603;0.171250;0.171502;0.171434;0.171453;0.171541;0.171493;0.171744;0.172009;0.172042;0.172045;0.171883;0.171952;0.171908
360.500000;0.164352;0.164774;0.164926;0.164538;0.164288;0.164787;0.165528;0.165259;0.165143;0.165402;0.165460;0.165384;0.165843;0.165958;0.166500;0.165195;0.166327;0.165808;0.166294;0.166436;0.166488;0.166765;0.166470;0.166515;0.167400;0.166886;0.167120;0.167039;0.166486;0.166726;0.166682;0.166961;0.166804;0.167350;0.167430;0.167407;0.167503;0.167744;0.167579;0.167702;0.167455;0.167926;0.168019;0.168334;0.167937;0.167987;0.168600;0.167998;0.168278;0.168345;0.168191;0.168274;0.168289;0.168241;0.168077;0.169005;0.169114;0.168984;0.168325;0.168866;0.168840
361.000000;0.161497;0.161967;0.161788;0.161324;0.161082;0.161758;0.162390;0.162263;0.162113;0.162391;0.161723;0.162401;0.162888;0.162915;0.162806;0.162700;0.162894;0.163199;0.162845;0.163005;0.162883;0.163976;0.163224;0.163451;0.163413;0.163700;0.164357;0.164057;0.163614;0.163817;0.164013;0.164083;0.164057;0.164284;0.164983;0.163995;0.164501;0.164570;0.164654;0.164128;0.164317;0.164699;0.165122;0.165300;0.164814;0.165128;0.165028;0.164678;0.165517;0.164456;0.165257;0.165028;0.165572;0.165281;0.165090;0.165412;0.166251;0.165837;0.165443;0.166127;0.165961
361.500000;0.158475;0.159222;0.158261;0.158218;0.158691;0.158743;0.159203;0.159106;0.159053;0.160191;0.159385;0.159290;0.160239;0.159724;0.159877;0.160122;0.159493;0.160646;0.160327;0.160700;0.159736;0.160935;0.160317;0.160517;0.160272;0.160539;0.161112;0.160790;0.161140;0.161040;0.161582;0.161088;0.161272;0.161238;0.161875;0.161292;0.161365;0.161244;0.161738;0.160996;0.161365;0.161917;0.162076;0.162055;0.161889;0.162432;0.162046;0.161812;0.162401;0.161134;0.162392;0.162253;0.162550;0.162571;0.162496;0.162299;0.162989;0.162303;0.162396;0.162931;0.162784
362.000000;0.155229;0.156019;0.154726;0.155165;0.156143;0.155536;0.156007;0.155967;0.155670;0.157313;0.157051;0.156270;0.157128;0.156733;0.156910;0.157067;0.156110;0.157427;0.157538;0.158011;0.156900;0.157752;0.157224;0.157380;0.157511;0.157117;0.157726;0.157397;0.158236;0.157971;0.158667;0.157672;0.158038;0.158087;0.158168;0.158375;0.158066;0.157949;0.158549;0.158431;0.158149;0.159045;0.158751;0.158740;0.158858;0.159194;0.159012;0.158759;0.159035;0.158195;0.159345;0.159336;0.159205;0.159522;0.159671;0.159314;0.159268;0.158946;0.159259;0.159436;0.159568
362.500000;0.151887;0.152129;0.151483;0.152029;0.152614;0.152111;0.152752;0.153028;0.152027;0.152872;0.153369;0.153514;0.153213;0.153967;0.153037;0.153565;0.152661;0.153438;0.153551;0.153778;0.153995;0.154637;0.153534;0.153970;0.154393;0.153397;0.154462;0.154033;0.154424;0.154454;0.154993;0.153982;0.154321;0.154765;0.154427;0.154616;0.154706;0.154834;0.155026;0.155959;0.154470;0.155622;0.155321;0.155531;0.155504;0.155232;0.155438;0.155127;0.155582;0.155126;0.156007;0.155727;0.155752;0.155891;0.156213;0.155861;0.155348;0.156083;0.156223;0.156033;0.156562
363.000000;0.148581;0.148339;0.148528;0.148601;0.148946;0.148810;0.149245;0.149769;0.148884;0.149039;0.149629;0.150398;0.149729;0.150262;0.149296;0.150046;0.149316;0.149723;0.149797;0.149954;0.150720;0.151244;0.149952;0.150665;0.151208;0.150153;0.150772;0.150761;0.150733;0.150830;0.151219;0.150873;0.150884;0.151170;0.150997;0.151298;0.151363;0.151635;0.151579;0.152261;0.151073;0.151835;0.152097;0.152238;0.152056;0.152064;0.152047;0.151785;0.151740;0.152004;0.152567;0.152052;0.152195;0.152689;0.152515;0.152079;0.151835;0.152719;0.152912;0.152768;0.153309
363.500000;0.145469;0.145149;0.145632;0.145110;0.145603;0.145793;0.145795;0.146276;0.146166;0.146412;0.146454;0.146899;0.147041;0.146059;0.146272;0.146812;0.146204;0.146632;0.146767;0.147169;0.147243;0.147726;0.146976;0.147581;0.148056;0.147447;0.147013;0.147702;0.147598;0.147543;0.147781;0.148241;0.147895;0.147764;0.147925;0.148538;0.148171;0.148409;0.148323;0.147814;0.148164;0.148187;0.148989;0.148780;0.148523;0.149566;0.148970;0.148826;0.148053;0.148870;0.149151;0.148765;0.148826;0.149912;0.149034;0.148576;0.148818;0.148906;0.149491;0.149639;0.149727
364.000000;0.142716;0.142564;0.142499;0.142189;0.142468;0.142977;0.143102;0.143265;0.143008;0.143716;0.143443;0.143689;0.144433;0.143281;0.143781;0.143955;0.143362;0.143719;0.143767;0.144391;0.144131;0.144744;0.144634;0.144551;0.144775;0.144608;0.144365;0.145000;0.144670;0.144945;0.144756;0.145081;0.144903;0.145375;0.145019;0.145235;0.145278;0.145550;0.145079;0.144727;0.145313;0.145286;0.145623;0.145303;0.144757;0.146028;0.145708;0.145521;0.145698;0.145692;0.145811;0.145950;0.146157;0.146552;0.146099;0.146128;0.145900;0.145829;0.146631;0.146654;0.146241
364.500000;0.140036;0.139965;0.139529;0.139833;0.139591;0.140038;0.140547;0.140556;0.139677;0.140878;0.140434;0.140809;0.141369;0.140976;0.141230;0.141154;0.140501;0.140913;0.140883;0.141520;0.141213;0.142002;0.142008;0.141573;0.141754;0.141715;0.142053;0.142172;0.141769;0.142273;0.142057;0.141710;0.142051;0.142925;0.142085;0.142046;0.142292;0.142813;0.142072;0.142309;0.142340;0.142656;0.142456;0.142240;0.141457;0.142288;0.142780;0.142207;0.143306;0.142605;0.142706;0.143315;0.143633;0.143188;0.143249;0.143754;0.143241;0.143375;0.143753;0.143671;0.143173
365.000000;0.137020;0.136734;0.136948;0.137500;0.136900;0.136731;0.137340;0.137598;0.136678;0.138093;0.137324;0.137885;0.137718;0.137650;0.138083;0.138036;0.137326;0.138132;0.138271;0.138658;0.138089;0.138931;0.138384;0.138625;0.139177;0.138903;0.138891;0.138779;0.138740;0.138796;0.139386;0.138715;0.139383;0.139293;0.138995;0.139648;0.138876;0.139701;0.139358;0.139158;0.139233;0.139582;0.139815;0.139700;0.139073;0.139477;0.140474;0.139345;0.139414;0.139606;0.139791;0.140421;0.140501;0.140491;0.139980;0.140292;0.140833;0.140825;0.140157;0.140535;0.140511
365.500000;0.133538;0.133100;0.133624;0.134031;0.133775;0.133389;0.133988;0.134057;0.133730;0.134663;0.133867;0.134287;0.134231;0.134136;0.134497;0.134654;0.134005;0.134770;0.135213;0.135204;0.134717;0.135513;0.134880;0.135437;0.135953;0.135509;0.135179;0.135372;0.135267;0.135345;0.136083;0.135717;0.135903;0.135776;0.135848;0.136442;0.135597;0.135906;0.136015;0.135619;0.136124;0.136147;0.136596;0.136566;0.136315;0.136224;0.137114;0.136366;0.135704;0.136129;0.136355;0.136913;0.136891;0.137317;0.136728;0.136426;0.137484;0.137550;0.136523;0.137290;0.137484
366.000000;0.129957;0.129571;0.129710;0.129773;0.130311;0.130331;0.130895;0.130404;0.130781;0.130912;0.130422;0.130470;0.131259;0.131094;0.130975;0.131324;0.130915;0.131159;0.131705;0.131423;0.131330;0.132087;0.132033;0.132117;0.132113;0.131706;0.131715;0.132480;0.131700;0.132238;0.132364;0.132570;0.131866;0.132988;0.132748;0.132273;0.132727;0.132046;0.132133;0.132271;0.133100;0.132825;0.132839;0.132850;0.132926;0.132508;0.132845;0.133186;0.133068;0.132386;0.132683;0.133198;0.133330;0.133523;0.133789;0.133070;0.133386;0.133810;0.133369;0.134087;0.134007
366.500000;0.127063;0.126716;0.126979;0.126772;0.127460;0.127675;0.128028;0.127826;0.128158;0.128360;0.127933;0.128024;0.128483;0.128419;0.128172;0.128509;0.128494;0.128663;0.128685;0.128605;0.128344;0.129215;0.129287;0.129202;0.129162;0.128714;0.129364;0.130252;0.129062;0.128919;0.129429;0.129603;0.129020;0.130210;0.129742;0.129032;0.129975;0.129573;0.129075;0.129496;0.130144;0.130254;0.130079;0.130012;0.130129;0.130211;0.130140;0.130437;0.130744;0.129511;0.130181;0.130409;0.130518;0.130439;0.131057;0.130820;0.130429;0.130771;0.130667;0.131111;0.130908
367.000000;0.124386;0.124185;0.124627;0.124360;0.124679;0.124859;0.125038;0.125340;0.125210;0.126003;0.125493;0.125985;0.125582;0.125484;0.125493;0.125764;0.126069;0.126241;0.125820;0.126033;0.125367;0.126391;0.126141;0.126300;0.126704;0.126098;0.126836;0.127460;0.126640;0.125706;0.126724;0.126696;0.126418;0.127014;0.126596;0.126304;0.126927;0.127393;0.126460;0.126723;0.126986;0.127721;0.127600;0.127513;0.127351;0.128178;0.128093;0.127497;0.127891;0.127035;0.127873;0.127745;0.127840;0.127817;0.128106;0.128409;0.127965;0.127958;0.127709;0.127948;0.128053
367.500000;0.121160;0.121309;0.121147;0.121012;0.121141;0.121336;0.121672;0.121566;0.121301;0.122271;0.121869;0.122676;0.122387;0.121836;0.122098;0.122443;0.122756;0.122421;0.122424;0.122510;0.121928;0.122950;0.122442;0.122823;0.123661;0.122870;0.122704;0.123058;0.123299;0.123070;0.123242;0.123551;0.122510;0.123381;0.123117;0.122940;0.123317;0.123847;0.123327;0.123246;0.123433;0.124263;0.124100;0.124169;0.123620;0.124473;0.124727;0.123640;0.124088;0.123969;0.124237;0.124036;0.124413;0.124761;0.124593;0.124436;0.124562;0.124447;0.123925;0.124241;0.124916
368.000000;0.118077;0.118122;0.117681;0.117568;0.118000;0.117954;0.118634;0.117964;0.117748;0.118549;0.118295;0.118920;0.119250;0.118554;0.118740;0.118987;0.119064;0.118904;0.119152;0.119115;0.118890;0.119769;0.119049;0.119364;0.120391;0.119423;0.119166;0.119183;0.119842;0.120364;0.119870;0.120235;0.118952;0.120068;0.119857;0.119887;0.119608;0.120259;0.120218;0.119724;0.120103;0.120677;0.120704;0.120549;0.120189;0.120433;0.121022;0.120263;0.120372;0.120738;0.120537;0.120605;0.120966;0.121330;0.121071;0.120538;0.121082;0.121015;0.120463;0.121026;0.121591
368.500000;0.115445;0.114852;0.114935;0.114613;0.115647;0.115169;0.116100;0.115271;0.115132;0.115757;0.115480;0.115602;0.116290;0.115994;0.115890;0.115860;0.115610;0.116492;0.116443;0.116394;0.116436;0.117197;0.116350;0.116322;0.117219;0.116240;0.117060;0.116748;0.116899;0.117239;0.117148;0.116979;0.116565;0.117352;0.117069;0.117495;0.116362;0.117469;0.117367;0.116684;0.117238;0.117587;0.117982;0.117305;0.117634;0.117234;0.117849;0.117903;0.117444;0.117730;0.117655;0.118029;0.117994;0.117899;0.117951;0.117704;0.118094;0.118170;0.117810;0.118598;0.118291
369.000000;0.112640;0.111831;0.112225;0.111701;0.112864;0.112503;0.113276;0.112418;0.112470;0.113265;0.112703;0.112928;0.113213;0.113096;0.113179;0.113235;0.112769;0.113811;0.114033;0.113516;0.113472;0.114422;0.113803;0.113505;0.114049;0.113528;0.114308;0.114047;0.114288;0.114168;0.114566;0.114175;0.114062;0.114633;0.114400;0.114696;0.114048;0.114765;0.114205;0.114070;0.114380;0.114867;0.115044;0.114665;0.114946;0.114816;0.115049;0.115287;0.115093;0.114896;0.115095;0.115152;0.115210;0.115007;0.115213;0.115121;0.115118;0.115550;0.115063;0.115842;0.115258
369.500000;0.109575;0.109019;0.109232;0.108737;0.109635;0.109551;0.109989;0.109367;0.109594;0.110414;0.109690;0.110290;0.110117;0.109757;0.110292;0.110498;0.110193;0.110589;0.111278;0.110354;0.110098;0.111170;0.110983;0.110582;0.111059;0.110863;0.110742;0.110763;0.111450;0.111077;0.111625;0.111523;0.111045;0.111461;0.111531;0.111343;0.111864;0.111739;0.110953;0.111331;0.111439;0.111998;0.111797;0.111967;0.111827;0.112416;0.112249;0.111983;0.112461;0.112046;0.112231;0.111910;0.112257;0.112225;0.112426;0.112362;0.111969;0.112663;0.111968;0.112527;0.112418
370.000000;0.106484;0.106158;0.105998;0.105834;0.106571;0.106155;0.106506;0.106583;0.106780;0.106848;0.106489;0.106919;0.107197;0.106476;0.107071;0.106908;0.107211;0.107290;0.107634;0.107245;0.107017;0.107637;0.107700;0.107309;0.108395;0.107648;0.107399;0.107490;0.107896;0.107646;0.108103;0.108414;0.107787;0.107749;0.108276;0.107916;0.108595;0.108366;0.108100;0.107900;0.108528;0.108491;0.108651;0.108384;0.108499;0.109183;0.109103;0.108283;0.108750;0.108944;0.108690;0.108864;0.108898;0.108794;0.109087;0.109335;0.108731;0.109179;0.108741;0.109043;0.109493
370.500000;0.103591;0.103538;0.103127;0.103118;0.103533;0.103184;0.103354;0.103687;0.103878;0.103598;0.103237;0.103856;0.104238;0.103637;0.104036;0.103738;0.104084;0.104249;0.104258;0.104574;0.104195;0.104591;0.104550;0.104432;0.105563;0.104644;0.104688;0.104532;0.104671;0.104626;0.105039;0.105284;0.104744;0.104699;0.105159;0.104975;0.105230;0.105371;0.105217;0.104784;0.105775;0.105310;0.105938;0.105148;0.105383;0.105951;0.106121;0.105120;0.105434;0.105807;0.105627;0.106086;0.105784;0.105726;0.105809;0.106246;0.105884;0.105987;0.105771;0.105970;0.106591
371.000000;0.100869;0.101095;0.100775;0.100489;0.100423;0.100926;0.100794;0.100568;0.100827;0.101216;0.100212;0.101568;0.101186;0.101214;0.101368;0.101577;0.101174;0.101534;0.101775;0.102251;0.101509;0.102208;0.101792;0.102125;0.102351;0.102203;0.102375;0.101938;0.102281;0.102299;0.102774;0.102456;0.102049;0.102659;0.102421;0.102532;0.102537;0.102915;0.102046;0.102455;0.103089;0.102929;0.103539;0.102897;0.102648;0.103284;0.103540;0.102839;0.103228;0.102830;0.103456;0.103377;0.103206;0.103480;0.103013;0.103217;0.103518;0.103536;0.103132;0.103369;0.103794
371.500000;0.097794;0.097856;0.097984;0.097414;0.097488;0.098116;0.098377;0.097885;0.097857;0.098653;0.097764;0.098600;0.098368;0.098452;0.098280;0.098786;0.098465;0.098730;0.098991;0.099302;0.098930;0.099293;0.098665;0.099055;0.099268;0.099237;0.099373;0.099364;0.099481;0.099540;0.099779;0.099474;0.099117;0.099817;0.099396;0.099536;0.099742;0.099765;0.098996;0.099626;0.099945;0.100186;0.100543;0.100150;0.099845;0.100381;0.100624;0.100360;0.100369;0.099849;0.100520;0.100253;0.100334;0.100622;0.100152;0.100021;0.100765;0.100828;0.100190;0.100238;0.100868
372.000000;0.094601;0.094351;0.094832;0.094318;0.094772;0.094885;0.095753;0.095521;0.095131;0.095661;0.095568;0.095200;0.095854;0.095419;0.095070;0.095528;0.095916;0.095859;0.095921;0.096021;0.096243;0.096091;0.095511;0.095667;0.096456;0.095869;0.095953;0.096587;0.096234;0.096437;0.096336;0.096459;0.096136;0.096370;0.096289;0.096177;0.096707;0.096236;0.096243;0.096414;0.096581;0.097141;0.097222;0.096838;0.096853;0.097270;0.097357;0.097397;0.096920;0.096847;0.097054;0.097085;0.097168;0.097258;0.097249;0.096986;0.097533;0.097785;0.097071;0.096898;0.097752
372.500000;0.091969;0.091972;0.092101;0.092094;0.092142;0.092292;0.092820;0.092825;0.092677;0.092699;0.092938;0.092741;0.093454;0.092746;0.092656;0.093158;0.093456;0.093238;0.093431;0.093446;0.093235;0.093760;0.093271;0.093433;0.093749;0.093071;0.093236;0.093576;0.093426;0.093896;0.093860;0.093900;0.093732;0.093864;0.093826;0.093465;0.093858;0.093621;0.093722;0.093890;0.093721;0.094662;0.094585;0.093974;0.093872;0.094567;0.094319;0.094394;0.094248;0.093937;0.094521;0.094671;0.094320;0.094560;0.094706;0.094667;0.094369;0.095043;0.094374;0.094473;0.094619
373.000000;0.089552;0.090077;0.089468;0.089924;0.089523;0.089741;0.090086;0.089914;0.090216;0.089937;0.090111;0.090565;0.090848;0.090292;0.090277;0.090846;0.090728;0.090685;0.091029;0.090891;0.090535;0.091697;0.090982;0.091205;0.091238;0.090637;0.090862;0.090597;0.090985;0.091443;0.091351;0.091422;0.091288;0.091619;0.091460;0.091138;0.091275;0.091348;0.091328;0.091514;0.091270;0.092061;0.092257;0.091482;0.091143;0.091922;0.091802;0.091694;0.091904;0.091129;0.092100;0.092334;0.091660;0.092106;0.092084;0.092324;0.091555;0.092558;0.091762;0.092378;0.092000
373.500000;0.086939;0.087672;0.086603;0.087016;0.086831;0.086735;0.087756;0.087080;0.087511;0.087281;0.087398;0.087846;0.087926;0.087744;0.087288;0.087818;0.087612;0.088004;0.088235;0.087768;0.088342;0.089064;0.087923;0.088003;0.088840;0.088119;0.088277;0.087848;0.088517;0.088581;0.088066;0.088665;0.088289;0.088806;0.088677;0.088691;0.088807;0.088763;0.088936;0.088710;0.088776;0.088847;0.089702;0.089007;0.088706;0.089050;0.089606;0.089295;0.089231;0.088385;0.088984;0.089441;0.088923;0.089356;0.089141;0.089387;0.089069;0.090010;0.088895;0.089873;0.089898
374.000000;0.084322;0.084545;0.083956;0.083875;0.083946;0.084144;0.085030;0.084430;0.084646;0.084339;0.084640;0.084883;0.085118;0.085005;0.084466;0.084957;0.084669;0.085324;0.085560;0.084912;0.085441;0.085841;0.085208;0.085062;0.085979;0.085427;0.085590;0.085187;0.085685;0.085741;0.085477;0.085924;0.085313;0.085888;0.085944;0.086031;0.086101;0.086350;0.086419;0.085971;0.085670;0.086022;0.087041;0.086402;0.086176;0.086485;0.086761;0.086567;0.086448;0.085655;0.086043;0.086501;0.086119;0.086662;0.086611;0.086563;0.086486;0.087042;0.086108;0.087125;0.087022
374.500000;0.081901;0.081516;0.081828;0.081108;0.081277;0.082131;0.082131;0.082075;0.082030;0.081535;0.082001;0.082308;0.082675;0.082319;0.082115;0.082533;0.082159;0.082808;0.083188;0.082587;0.082207;0.082765;0.083096;0.082878;0.083002;0.082789;0.083013;0.082786;0.082968;0.083259;0.083766;0.083479;0.082784;0.083400;0.083619;0.083441;0.083516;0.084160;0.083838;0.083548;0.082624;0.083907;0.084468;0.083779;0.083617;0.084307;0.083568;0.083639;0.083846;0.083165;0.083747;0.083815;0.083601;0.084304;0.084569;0.084097;0.083994;0.084062;0.083752;0.084509;0.083727
375.000000;0.079756;0.079862;0.080173;0.079125;0.079490;0.080086;0.080065;0.080079;0.080152;0.079803;0.079884;0.080689;0.080576;0.080124;0.079968;0.080140;0.079986;0.080568;0.080903;0.080423;0.080259;0.080874;0.080929;0.081000;0.080921;0.080593;0.080719;0.080990;0.081255;0.081191;0.081806;0.081426;0.080758;0.081624;0.081740;0.081368;0.081802;0.081778;0.081410;0.081334;0.081036;0.082028;0.082126;0.081410;0.081441;0.082111;0.081334;0.081273;0.081608;0.081244;0.081925;0.081391;0.081811;0.082305;0.082424;0.081725;0.082189;0.081948;0.081980;0.082341;0.081658
375.500000;0.077552;0.078304;0.078209;0.077452;0.077761;0.077715;0.078040;0.078004;0.078297;0.078255;0.077888;0.079092;0.078479;0.078152;0.077900;0.077929;0.078034;0.078394;0.078562;0.078417;0.078692;0.079267;0.078591;0.078939;0.079114;0.078622;0.078458;0.079153;0.079266;0.079068;0.079389;0.079244;0.078688;0.079777;0.079663;0.079364;0.079793;0.079221;0.079174;0.079133;0.079507;0.080035;0.079835;0.079193;0.079289;0.079696;0.079691;0.079285;0.079470;0.079234;0.079890;0.079402;0.079932;0.080159;0.079960;0.079553;0.080285;0.079989;0.080072;0.080010;0.079971
376.000000;0.075023;0.075583;0.075373;0.075407;0.075250;0.075030;0.075281;0.075502;0.075742;0.075842;0.075516;0.076551;0.076076;0.075919;0.075757;0.075957;0.076032;0.076009;0.076073;0.076499;0.076278;0.076866;0.076162;0.076409;0.076742;0.076421;0.076000;0.076620;0.075914;0.076473;0.076661;0.076534;0.076112;0.077142;0.076935;0.076871;0.076559;0.076655;0.076972;0.076749;0.076590;0.077613;0.077372;0.076869;0.076760;0.077031;0.077740;0.077157;0.077134;0.076592;0.077227;0.077653;0.077246;0.077448;0.077225;0.077567;0.077510;0.077416;0.077404;0.077120;0.077549
376.500000;0.072603;0.073090;0.072465;0.072760;0.072661;0.072584;0.072950;0.073053;0.073015;0.073029;0.072955;0.073602;0.073562;0.073221;0.073268;0.073607;0.073467;0.073427;0.073507;0.074175;0.073625;0.074175;0.073761;0.073749;0.074178;0.073681;0.073704;0.073808;0.072854;0.073748;0.073826;0.073939;0.073473;0.074325;0.074328;0.074067;0.073758;0.074315;0.074484;0.074170;0.073586;0.074534;0.074858;0.074301;0.074262;0.074433;0.075061;0.074619;0.074765;0.074127;0.074765;0.075001;0.074630;0.074619;0.074658;0.075202;0.074602;0.075007;0.074561;0.074827;0.075181
377.000000;0.070454;0.071122;0.069988;0.069877;0.070334;0.070482;0.071093;0.070800;0.070545;0.070375;0.070387;0.070821;0.071066;0.070454;0.070612;0.070906;0.070531;0.070887;0.071097;0.071494;0.070995;0.071696;0.071416;0.071197;0.071691;0.070838;0.071530;0.071140;0.070816;0.071166;0.071209;0.071709;0.071068;0.071760;0.072071;0.071299;0.071852;0.072193;0.071812;0.071576;0.071300;0.071325;0.072362;0.071803;0.071993;0.072167;0.072061;0.071947;0.072385;0.072005;0.072628;0.071673;0.072394;0.072102;0.072401;0.072454;0.072122;0.072951;0.072032;0.073049;0.073048
377.500000;0.068324;0.068518;0.067860;0.067568;0.068006;0.068299;0.068413;0.068440;0.068382;0.068219;0.067897;0.068503;0.068589;0.068475;0.068397;0.068605;0.068144;0.068750;0.069132;0.069119;0.068102;0.069577;0.069053;0.068800;0.069253;0.068917;0.069016;0.068834;0.069054;0.068807;0.069166;0.069509;0.068883;0.069459;0.069651;0.068925;0.069675;0.070023;0.069489;0.069279;0.069482;0.069126;0.069881;0.070005;0.069789;0.070298;0.069806;0.069846;0.069841;0.069570;0.070086;0.069335;0.070005;0.070087;0.070219;0.069954;0.070125;0.070600;0.069944;0.070354;0.070464
378.000000;0.066275;0.065997;0.065991;0.065683;0.066032;0.066260;0.065675;0.066411;0.066347;0.066498;0.065929;0.066622;0.066611;0.067065;0.066662;0.066726;0.066491;0.066950;0.067414;0.067292;0.065914;0.067443;0.066804;0.066981;0.067194;0.067388;0.066847;0.067019;0.067172;0.066972;0.067507;0.067454;0.067074;0.067557;0.067392;0.067069;0.067445;0.067876;0.067639;0.067389;0.067896;0.067531;0.067861;0.068455;0.067788;0.068458;0.068102;0.068093;0.067589;0.067353;0.067724;0.067790;0.067646;0.068311;0.068226;0.067860;0.068469;0.068155;0.068251;0.067784;0.067949
378.500000;0.064348;0.064444;0.064174;0.063755;0.064603;0.064552;0.063973;0.064948;0.064218;0.064825;0.064625;0.064900;0.065282;0.065526;0.065036;0.064916;0.065141;0.065137;0.065551;0.065729;0.065057;0.064971;0.064808;0.065778;0.065617;0.065329;0.065523;0.065537;0.065053;0.065624;0.065751;0.065645;0.065579;0.065980;0.065642;0.065527;0.065663;0.065867;0.065992;0.065729;0.066199;0.065646;0.066474;0.066404;0.066024;0.066234;0.066287;0.066093;0.065915;0.065859;0.066169;0.066097;0.065655;0.066331;0.066430;0.065974;0.066777;0.066026;0.066633;0.066550;0.066137
379.000000;0.062157;0.062604;0.061919;0.061860;0.062607;0.062384;0.062472;0.062721;0.062015;0.062501;0.062830;0.062850;0.063220;0.063375;0.062884;0.062880;0.063042;0.062846;0.063345;0.063354;0.063463;0.062769;0.063003;0.063646;0.063538;0.062975;0.063489;0.063568;0.062868;0.063493;0.063405;0.063568;0.063518;0.063965;0.063693;0.063551;0.063683;0.063815;0.063808;0.063655;0.063725;0.063453;0.064563;0.063860;0.063864;0.063754;0.064243;0.063581;0.063854;0.063889;0.064372;0.063951;0.063865;0.063878;0.064101;0.063871;0.064329;0.064063;0.064286;0.064900;0.064351
379.500000;0.059835;0.060053;0.059525;0.060035;0.059887;0.059768;0.060565;0.059724;0.059884;0.059794;0.060364;0.060595;0.060378;0.060831;0.060307;0.060669;0.060245;0.060310;0.060922;0.060409;0.060570;0.061079;0.061162;0.060539;0.060989;0.060711;0.060601;0.060984;0.060819;0.060576;0.060744;0.061157;0.060884;0.061504;0.061369;0.061098;0.061331;0.061636;0.061137;0.061087;0.060794;0.061219;0.061941;0.061328;0.061260;0.061319;0.062130;0.060997;0.061271;0.061206;0.061897;0.061633;0.061981;0.061402;0.061418;0.061564;0.061363;0.062060;0.061428;0.062197;0.062206
380.000000;0.058075;0.057762;0.058076;0.058092;0.057602;0.057733;0.058341;0.057663;0.057970;0.057986;0.058371;0.058870;0.058445;0.058737;0.058202;0.058629;0.058087;0.058445;0.058650;0.058644;0.058096;0.059430;0.058907;0.058349;0.059249;0.058727;0.058656;0.058541;0.058987;0.058478;0.058773;0.058944;0.058752;0.059500;0.059265;0.058979;0.059158;0.059389;0.058948;0.058635;0.058755;0.059239;0.059736;0.059551;0.058909;0.059201;0.060203;0.059326;0.059182;0.058979;0.059366;0.059819;0.059681;0.059943;0.059607;0.059526;0.059161;0.059839;0.059396;0.059717;0.059914
380.500000;0.056444;0.055993;0.056686;0.055915;0.055941;0.056038;0.056199;0.056178;0.056146;0.056645;0.056750;0.057117;0.057081;0.056790;0.056447;0.056658;0.056393;0.056884;0.056577;0.057464;0.056259;0.057587;0.056574;0.056862;0.057578;0.056881;0.057241;0.056501;0.057209;0.057086;0.057069;0.057077;0.056991;0.057637;0.057342;0.057242;0.057207;0.057405;0.057243;0.056554;0.057183;0.057370;0.057831;0.058030;0.056936;0.057376;0.058121;0.057833;0.057543;0.057270;0.057208;0.058047;0.057395;0.058599;0.058138;0.057613;0.057542;0.057611;0.057840;0.057727;0.057634
381.000000;0.054306;0.054587;0.054111;0.053646;0.054570;0.054096;0.054561;0.054196;0.054291;0.054781;0.054921;0.054624;0.055210;0.054477;0.054596;0.054612;0.054462;0.054914;0.054709;0.055503;0.054590;0.055598;0.054788;0.055041;0.054870;0.055038;0.055194;0.054863;0.055325;0.055544;0.054881;0.055493;0.055073;0.055321;0.055391;0.055626;0.055351;0.056006;0.055635;0.054907;0.055137;0.055408;0.055732;0.055959;0.055221;0.055730;0.055630;0.055503;0.055905;0.055646;0.055651;0.055658;0.055764;0.056099;0.055996;0.055571;0.055809;0.055808;0.055855;0.055999;0.055587
381.500000;0.052474;0.053085;0.051925;0.051887;0.053045;0.052532;0.052987;0.052314;0.052589;0.052852;0.053033;0.052702;0.053258;0.052676;0.052912;0.052840;0.052652;0.053071;0.053202;0.053485;0.053102;0.053723;0.053307;0.053165;0.052861;0.053448;0.053246;0.053382;0.053401;0.053757;0.053084;0.053857;0.053358;0.053339;0.053692;0.054102;0.053679;0.054510;0.054097;0.053447;0.053337;0.053570;0.053990;0.053852;0.053628;0.054104;0.053750;0.053796;0.054354;0.053978;0.054260;0.053492;0.054203;0.053846;0.053978;0.053778;0.054227;0.054491;0.053919;0.054416;0.054044
382.000000;0.051248;0.051336;0.050792;0.050738;0.051107;0.051448;0.051198;0.050816;0.051082;0.051219;0.051289;0.051757;0.051593;0.051581;0.051502;0.051409;0.051132;0.051630;0.051886;0.051890;0.051766;0.052071;0.051765;0.051593;0.052173;0.052062;0.051849;0.051831;0.051622;0.051868;0.052006;0.052058;0.051981;0.052026;0.052268;0.052519;0.052165;0.052522;0.052526;0.051890;0.052109;0.051994;0.052734;0.052205;0.052087;0.052400;0.052723;0.053103;0.052844;0.052255;0.052688;0.052069;0.052389;0.052548;0.052489;0.052298;0.052835;0.053259;0.052440;0.052920;0.052848
382.500000;0.049740;0.049794;0.049134;0.049457;0.048942;0.049847;0.049542;0.049035;0.049560;0.049648;0.049762;0.050240;0.050016;0.049989;0.050049;0.049861;0.049500;0.050103;0.050176;0.050169;0.050373;0.050511;0.050042;0.050354;0.050853;0.050349;0.050427;0.050191;0.050289;0.050153;0.050663;0.050470;0.050493;0.050634;0.050683;0.050586;0.050621;0.050530;0.050680;0.050123;0.050663;0.050603;0.051194;0.051031;0.050679;0.050715;0.051277;0.051467;0.051046;0.050591;0.051050;0.050926;0.050879;0.051015;0.050780;0.050606;0.051094;0.051308;0.051245;0.051540;0.051301
383.000000;0.048067;0.048273;0.047088;0.047901;0.047159;0.047906;0.048147;0.047275;0.047986;0.048150;0.048322;0.048219;0.048518;0.048100;0.048467;0.048158;0.047896;0.048493;0.048407;0.048517;0.048701;0.048975;0.048539;0.049060;0.048789;0.048364;0.048835;0.048578;0.049084;0.048660;0.048924;0.049057;0.048756;0.049113;0.049058;0.048746;0.049086;0.048832;0.048889;0.048542;0.048763;0.049147;0.049404;0.049771;0.049178;0.049116;0.049379;0.049131;0.049231;0.048950;0.049457;0.049518;0.049593;0.049232;0.048949;0.048969;0.049153;0.049151;0.049858;0.049814;0.049517
383.500000;0.046773;0.046335;0.045676;0.046284;0.046201;0.046359;0.046853;0.046213;0.046403;0.046785;0.046707;0.046631;0.047126;0.046770;0.046800;0.046501;0.046643;0.047053;0.047211;0.047361;0.046659;0.047398;0.047640;0.047262;0.046992;0.046521;0.047206;0.047081;0.047426;0.047214;0.047210;0.047484;0.046879;0.047740;0.047683;0.047547;0.047648;0.047417;0.047564;0.047500;0.046646;0.047408;0.047823;0.047789;0.047258;0.047589;0.047690;0.047483;0.047850;0.047201;0.047897;0.047524;0.048028;0.047819;0.047512;0.047859;0.047497;0.047756;0.047866;0.047324;0.047984
384.000000;0.045332;0.044767;0.044555;0.044697;0.045071;0.044961;0.045376;0.045418;0.044954;0.045232;0.044952;0.045316;0.045646;0.045578;0.045134;0.045095;0.045439;0.045811;0.046069;0.046052;0.045041;0.045815;0.046518;0.045647;0.045626;0.045328;0.045669;0.045661;0.045726;0.045708;0.045782;0.045765;0.045296;0.046170;0.046152;0.046205;0.046226;0.046076;0.046151;0.046055;0.044993;0.046051;0.046469;0.045878;0.045410;0.046205;0.046187;0.046265;0.046672;0.045624;0.046279;0.045813;0.046227;0.046554;0.046394;0.046514;0.046281;0.046541;0.046111;0.045582;0.046632
384.500000;0.043407;0.043831;0.043254;0.043129;0.043200;0.043437;0.043723;0.044224;0.043629;0.043391;0.043224;0.043940;0.044013;0.044056;0.043560;0.043901;0.044027;0.044528;0.044586;0.044220;0.044156;0.044322;0.044703;0.044529;0.044497;0.044584;0.044269;0.044271;0.044336;0.044187;0.044558;0.044072;0.044088;0.044275;0.044326;0.044264;0.044754;0.044681;0.044339;0.043863;0.043997;0.045161;0.045093;0.044534;0.044011;0.044945;0.044683;0.044967;0.045292;0.044386;0.044576;0.044799;0.044507;0.045157;0.045194;0.044571;0.045254;0.045006;0.044974;0.045159;0.045267
385.000000;0.041459;0.042234;0.041701;0.041378;0.041406;0.041853;0.042356;0.042120;0.042028;0.041646;0.041656;0.042333;0.042401;0.042237;0.042050;0.042394;0.042465;0.042586;0.043066;0.042455;0.042941;0.042970;0.042878;0.042950;0.043112;0.042799;0.042816;0.042831;0.042922;0.042821;0.042877;0.042580;0.042501;0.042520;0.042776;0.042407;0.043202;0.043256;0.042639;0.042167;0.042701;0.043362;0.043161;0.042954;0.042727;0.043499;0.042960;0.043391;0.043301;0.043150;0.042836;0.043427;0.043256;0.043588;0.043230;0.042885;0.043576;0.043473;0.043349;0.043952;0.043676
385.500000;0.039933;0.040335;0.040205;0.039666;0.040051;0.040313;0.041081;0.039886;0.040342;0.040256;0.040220;0.040819;0.040923;0.040465;0.040651;0.040800;0.040903;0.040527;0.041509;0.041129;0.041195;0.041708;0.041289;0.041087;0.041474;0.040584;0.041189;0.041344;0.041355;0.041414;0.041049;0.041342;0.040801;0.041215;0.041481;0.040993;0.041740;0.041863;0.041313;0.041076;0.041105;0.041152;0.041220;0.041325;0.041491;0.041884;0.041354;0.041781;0.041263;0.041830;0.041273;0.041580;0.042258;0.041995;0.041215;0.041716;0.041544;0.042071;0.041439;0.041980;0.042000
386.000000;0.039096;0.039512;0.039212;0.038445;0.039009;0.038939;0.039398;0.038923;0.039121;0.039323;0.038886;0.039914;0.039634;0.039194;0.039461;0.039764;0.039533;0.039523;0.039792;0.040291;0.039513;0.040437;0.039790;0.039896;0.039972;0.039764;0.039427;0.039910;0.039792;0.039683;0.039962;0.040283;0.039854;0.040397;0.040055;0.039979;0.040593;0.040577;0.040319;0.039869;0.039908;0.040175;0.040350;0.040429;0.040440;0.040392;0.040461;0.040588;0.040194;0.040568;0.040172;0.039953;0.040971;0.040630;0.040541;0.040781;0.040192;0.040751;0.040305;0.040783;0.040634
386.500000;0.038523;0.038866;0.038361;0.037400;0.037957;0.037851;0.038011;0.038519;0.038090;0.038726;0.038125;0.039050;0.038508;0.038249;0.038393;0.038695;0.038441;0.039009;0.038607;0.039455;0.038389;0.039095;0.038385;0.039066;0.038783;0.039146;0.037921;0.038677;0.038641;0.038363;0.039138;0.039068;0.038976;0.039433;0.038859;0.038931;0.039360;0.039334;0.039255;0.038686;0.038903;0.039630;0.039722;0.039434;0.039301;0.039202;0.039808;0.039550;0.039397;0.039337;0.039397;0.038905;0.039585;0.039544;0.040147;0.039794;0.039355;0.039580;0.039365;0.039893;0.039723
387.000000;0.037670;0.037539;0.037311;0.036316;0.036829;0.037063;0.037344;0.037695;0.036950;0.038053;0.037885;0.037784;0.037468;0.037346;0.037355;0.037174;0.037510;0.038167;0.038131;0.038228;0.037799;0.037789;0.037226;0.038110;0.037908;0.037640;0.037007;0.037698;0.037938;0.037816;0.038005;0.037620;0.037639;0.037934;0.038033;0.037686;0.037876;0.038128;0.037910;0.037691;0.037790;0.038567;0.038480;0.037756;0.037969;0.038341;0.038874;0.038396;0.038198;0.038125;0.038655;0.038364;0.038360;0.038638;0.038974;0.038618;0.038622;0.038574;0.038110;0.038661;0.039044
387.500000;0.036259;0.036319;0.036304;0.035650;0.036164;0.036347;0.036427;0.036425;0.035892;0.036510;0.036755;0.036655;0.036376;0.036394;0.036347;0.035947;0.036297;0.036901;0.036966;0.036780;0.036758;0.036882;0.036588;0.037060;0.037104;0.036431;0.036602;0.036764;0.036805;0.036941;0.036741;0.036509;0.036653;0.036460;0.036765;0.036833;0.036832;0.037121;0.036671;0.036502;0.036698;0.037426;0.037047;0.036408;0.036914;0.037572;0.037783;0.037297;0.037148;0.037038;0.037628;0.037608;0.037159;0.037634;0.037680;0.037395;0.037897;0.037539;0.037277;0.037466;0.037840
388.000000;0.034629;0.035261;0.035234;0.035048;0.035560;0.035400;0.035065;0.035068;0.034881;0.034514;0.034937;0.035703;0.035282;0.035242;0.035188;0.035112;0.034924;0.035429;0.035111;0.035444;0.035315;0.036158;0.036040;0.035908;0.036065;0.035680;0.036127;0.035671;0.035297;0.035521;0.035535;0.035686;0.035953;0.035464;0.035225;0.036098;0.036123;0.036112;0.035570;0.035254;0.035669;0.036275;0.035772;0.035602;0.036030;0.036500;0.036549;0.036222;0.036218;0.036005;0.036333;0.036332;0.035977;0.036487;0.036456;0.036196;0.036967;0.036379;0.036734;0.036393;0.036300
388.500000;0.033476;0.033782;0.033776;0.033638;0.034026;0.033996;0.033833;0.034076;0.033700;0.033347;0.033892;0.034522;0.034372;0.033768;0.033677;0.034155;0.033934;0.034119;0.033774;0.034507;0.034342;0.035017;0.034748;0.034607;0.034606;0.034548;0.034850;0.034346;0.034218;0.034190;0.034496;0.034603;0.034746;0.035030;0.034338;0.034602;0.035019;0.034708;0.034336;0.034449;0.034626;0.034823;0.034760;0.034754;0.034764;0.034829;0.035100;0.034946;0.034906;0.034831;0.035062;0.034738;0.034935;0.035345;0.035002;0.035016;0.035595;0.035133;0.035613;0.035219;0.035295
389.000000;0.032539;0.032401;0.032433;0.032109;0.032315;0.032542;0.032852;0.033067;0.032479;0.032808;0.033183;0.033275;0.033580;0.032388;0.032481;0.033047;0.033125;0.033042;0.032978;0.033464;0.033523;0.033708;0.033207;0.033372;0.033385;0.033065;0.033416;0.033201;0.033262;0.033014;0.033639;0.033439;0.033383;0.034195;0.033704;0.032887;0.033744;0.033291;0.033100;0.033668;0.033432;0.033494;0.033851;0.033695;0.033286;0.033472;0.033828;0.033399;0.033698;0.033508;0.033910;0.033377;0.033874;0.034065;0.033623;0.033878;0.034131;0.033932;0.034017;0.034016;0.034383
389.500000;0.031511;0.031564;0.031589;0.031191;0.031320;0.031429;0.031988;0.031731;0.031451;0.032261;0.032081;0.032232;0.032734;0.031542;0.031997;0.031902;0.032151;0.032135;0.032305;0.032049;0.032397;0.032574;0.032100;0.032336;0.032807;0.031631;0.032481;0.032501;0.032084;0.031956;0.032863;0.032477;0.032338;0.032420;0.032696;0.031740;0.032697;0.032312;0.032091;0.032497;0.032111;0.032671;0.032909;0.032506;0.031983;0.033026;0.033000;0.031875;0.032977;0.032147;0.032893;0.032590;0.032667;0.032665;0.032662;0.032834;0.032956;0.032860;0.032432;0.032886;0.033069
390.000000;0.030906;0.030652;0.030706;0.030423;0.030817;0.030568;0.031004;0.030774;0.030871;0.031414;0.030968;0.031494;0.031726;0.031334;0.031289;0.030811;0.031073;0.031359;0.031456;0.031368;0.031328;0.031514;0.031469;0.031295;0.032018;0.030852;0.031608;0.031819;0.031325;0.031351;0.031950;0.031693;0.031449;0.031218;0.031417;0.031361;0.031934;0.031798;0.031484;0.031441;0.031235;0.032080;0.032149;0.031556;0.031233;0.032362;0.032263;0.031505;0.032058;0.031078;0.032097;0.032025;0.031617;0.031899;0.032103;0.032056;0.032113;0.031921;0.031522;0.031827;0.032022
390.500000;0.030502;0.029529;0.029605;0.029601;0.030335;0.029817;0.029865;0.030233;0.030455;0.030316;0.029953;0.030725;0.030619;0.031125;0.030089;0.029844;0.030060;0.030521;0.030424;0.031195;0.030373;0.030564;0.030854;0.030232;0.030859;0.030603;0.030582;0.030832;0.030847;0.030886;0.030913;0.030840;0.030622;0.030871;0.030223;0.031058;0.031272;0.031253;0.030930;0.030534;0.030727;0.031241;0.031389;0.030820;0.030789;0.031099;0.031334;0.031763;0.030737;0.030353;0.031317;0.031180;0.030725;0.031542;0.031563;0.031360;0.031382;0.031049;0.031136;0.030966;0.031274
391.000000;0.029352;0.028693;0.028612;0.028912;0.029411;0.029042;0.028757;0.029343;0.029468;0.029294;0.028738;0.029327;0.029615;0.029810;0.029023;0.029018;0.029260;0.029343;0.029496;0.029931;0.029210;0.029891;0.029531;0.029344;0.030017;0.029994;0.029599;0.029525;0.029714;0.029693;0.030007;0.029582;0.029883;0.030110;0.029510;0.029578;0.030370;0.029899;0.029706;0.029274;0.029824;0.029736;0.030111;0.029861;0.029860;0.029906;0.030184;0.030572;0.029476;0.029676;0.030137;0.029705;0.029656;0.030401;0.030456;0.030269;0.030389;0.030129;0.030313;0.030472;0.030125
391.500000;0.028261;0.028393;0.028096;0.028250;0.028541;0.028398;0.028078;0.028400;0.028468;0.028618;0.027963;0.028324;0.028921;0.028531;0.028376;0.028594;0.028674;0.028425;0.029099;0.028500;0.028493;0.029421;0.028383;0.028859;0.029513;0.029051;0.029083;0.028581;0.028858;0.028718;0.029504;0.028609;0.029249;0.029205;0.029241;0.028231;0.029554;0.028723;0.028712;0.028499;0.028938;0.028615;0.029182;0.029075;0.029054;0.029210;0.029551;0.029050;0.028754;0.029112;0.029233;0.028852;0.028905;0.029232;0.029384;0.029461;0.029602;0.029490;0.029387;0.030137;0.029316
392.000000;0.028046;0.028416;0.027992;0.027464;0.028086;0.027913;0.027920;0.027864;0.028038;0.028238;0.028029;0.028443;0.028510;0.028394;0.028016;0.028501;0.028158;0.028137;0.029178;0.028117;0.028569;0.028920;0.028236;0.028695;0.029006;0.028128;0.029051;0.028397;0.029021;0.028756;0.029293;0.028452;0.028585;0.028692;0.029074;0.028290;0.029085;0.028594;0.028688;0.028769;0.028520;0.028697;0.029268;0.028773;0.028927;0.028962;0.029703;0.028699;0.028654;0.028705;0.029092;0.029406;0.028821;0.028916;0.028950;0.029435;0.029365;0.029261;0.028859;0.029581;0.029387
392.500000;0.027402;0.027675;0.027072;0.026679;0.026923;0.026950;0.027338;0.027300;0.027258;0.027372;0.027543;0.027669;0.027733;0.027693;0.027172;0.027517;0.027367;0.027195;0.028284;0.027637;0.027787;0.028040;0.027821;0.027945;0.028061;0.027288;0.028221;0.027793;0.028154;0.028007;0.028273;0.027991;0.027402;0.027849;0.028397;0.027801;0.028234;0.027940;0.027997;0.028263;0.027677;0.028434;0.028810;0.028003;0.028185;0.028239;0.028765;0.028079;0.028231;0.027985;0.028383;0.029007;0.028335;0.028251;0.028293;0.028793;0.028658;0.028536;0.028062;0.028456;0.028577
393.000000;0.025969;0.026022;0.025332;0.025751;0.025145;0.025621;0.026003;0.026320;0.025807;0.025973;0.026060;0.025667;0.026466;0.025871;0.025743;0.025657;0.026237;0.025580;0.026336;0.026477;0.025913;0.026750;0.026587;0.026536;0.026727;0.026400;0.026455;0.026381;0.026059;0.026192;0.026516;0.026744;0.025827;0.026469;0.027074;0.026223;0.026862;0.026264;0.026376;0.026530;0.026144;0.027287;0.027396;0.026563;0.026585;0.026885;0.026632;0.026720;0.027060;0.026779;0.026799;0.027160;0.027043;0.026813;0.027027;0.027088;0.027217;0.027121;0.026844;0.026882;0.026643
393.500000;0.024690;0.024360;0.024083;0.024250;0.024165;0.024745;0.024407;0.024798;0.024240;0.024789;0.024419;0.024193;0.025166;0.024043;0.024366;0.024265;0.024987;0.024697;0.024765;0.025074;0.024417;0.025320;0.025115;0.025312;0.025473;0.025189;0.024923;0.024829;0.024752;0.024922;0.025321;0.025181;0.024564;0.025066;0.025478;0.024961;0.025539;0.024597;0.025268;0.024889;0.024519;0.026133;0.026110;0.025178;0.025207;0.025611;0.025221;0.025603;0.025472;0.025279;0.025328;0.025725;0.025483;0.025337;0.025504;0.025185;0.025746;0.025683;0.025713;0.025378;0.025188
394.000000;0.023934;0.023330;0.023558;0.022958;0.023755;0.023889;0.023366;0.023527;0.023313;0.024085;0.023291;0.023654;0.024086;0.023178;0.023447;0.023611;0.024011;0.024360;0.023897;0.024011;0.023735;0.024354;0.024076;0.024563;0.024515;0.024060;0.024154;0.023570;0.024305;0.024291;0.024850;0.023906;0.023915;0.024210;0.024277;0.024192;0.024614;0.023774;0.024714;0.023826;0.023551;0.025064;0.025070;0.024290;0.024378;0.024666;0.024798;0.024784;0.024318;0.023959;0.024269;0.024842;0.024444;0.024448;0.024268;0.024092;0.024664;0.024671;0.024849;0.024581;0.024612
394.500000;0.023726;0.023277;0.023438;0.022907;0.023243;0.022585;0.023476;0.023409;0.023550;0.023864;0.023096;0.023738;0.023458;0.023762;0.023220;0.023460;0.023639;0.023879;0.023587;0.023827;0.023753;0.024348;0.023938;0.024289;0.024013;0.023640;0.024194;0.022954;0.024007;0.023828;0.024722;0.023493;0.023894;0.024253;0.024059;0.023641;0.024271;0.024175;0.024243;0.023457;0.023728;0.024018;0.024152;0.024091;0.024053;0.024140;0.024827;0.024051;0.024349;0.023382;0.023678;0.024060;0.024480;0.024497;0.023839;0.024412;0.024191;0.024342;0.024347;0.024860;0.024682
395.000000;0.023555;0.023416;0.023070;0.023188;0.023148;0.022323;0.023412;0.023511;0.023757;0.023676;0.023146;0.023625;0.023372;0.024219;0.023257;0.023319;0.023221;0.023464;0.023563;0.024190;0.023829;0.024293;0.023819;0.024076;0.023957;0.023638;0.024083;0.022985;0.023601;0.023534;0.024349;0.023657;0.023814;0.024194;0.024036;0.023373;0.024106;0.024375;0.023873;0.023583;0.023774;0.023548;0.023805;0.023974;0.023832;0.024023;0.024561;0.023653;0.024447;0.023391;0.023576;0.023668;0.024371;0.024584;0.023801;0.024424;0.023905;0.024203;0.024256;0.024853;0.024687
395.500000;0.023067;0.023076;0.022263;0.022855;0.023202;0.023037;0.022492;0.022979;0.023066;0.023075;0.022795;0.022884;0.023299;0.023536;0.022972;0.022852;0.022442;0.023026;0.023300;0.024116;0.023424;0.023546;0.023104;0.023464;0.023786;0.023447;0.023280;0.022992;0.022926;0.023196;0.023539;0.023688;0.023187;0.023358;0.023512;0.023189;0.023647;0.023558;0.023489;0.023533;0.023029;0.023481;0.023774;0.023401;0.023345;0.023775;0.023691;0.023415;0.023900;0.023320;0.023576;0.023598;0.023516;0.024029;0.023592;0.023339;0.023398;0.023671;0.024119;0.023863;0.024056
396.000000;0.022337;0.022222;0.021564;0.021685;0.021920;0.022201;0.021558;0.021796;0.021738;0.021873;0.021916;0.021862;0.022131;0.022247;0.021935;0.022081;0.021751;0.021896;0.022134;0.022343;0.022429;0.022514;0.022053;0.022201;0.022456;0.022448;0.022197;0.021746;0.021893;0.022289;0.022692;0.022762;0.022105;0.022063;0.022470;0.022519;0.022625;0.022417;0.022713;0.022309;0.022274;0.022618;0.022840;0.022309;0.022445;0.022385;0.022618;0.022556;0.023187;0.022240;0.022880;0.023127;0.022734;0.022957;0.022856;0.022410;0.022576;0.022442;0.022984;0.022713;0.022702
396.500000;0.021703;0.021418;0.021265;0.020597;0.020437;0.020784;0.021106;0.020883;0.020724;0.020817;0.020973;0.021330;0.020913;0.021163;0.021042;0.021387;0.021358;0.020818;0.020910;0.020629;0.021545;0.021767;0.021391;0.021166;0.021166;0.021288;0.021451;0.020505;0.021201;0.021548;0.021888;0.021734;0.021197;0.021232;0.021609;0.021734;0.021605;0.021867;0.021923;0.021007;0.021831;0.021672;0.021766;0.021549;0.021575;0.021007;0.021894;0.021574;0.022556;0.021199;0.021889;0.022267;0.022209;0.022050;0.022082;0.022217;0.021991;0.021646;0.021700;0.022151;0.021543
397.000000;0.021461;0.021258;0.021354;0.020645;0.020712;0.021001;0.021253;0.021137;0.020877;0.020805;0.020578;0.021810;0.021268;0.020963;0.021347;0.021207;0.021224;0.020906;0.020909;0.021376;0.021524;0.021719;0.021648;0.021367;0.021654;0.020998;0.021482;0.021127;0.021550;0.021927;0.021175;0.021866;0.021109;0.021642;0.021665;0.021572;0.021392;0.022409;0.021710;0.021232;0.021648;0.021916;0.021937;0.021969;0.021342;0.021351;0.021916;0.021441;0.022086;0.021672;0.021515;0.021521;0.021789;0.022001;0.021966;0.022609;0.022206;0.022470;0.021696;0.022461;0.021619
397.500000;0.021132;0.021077;0.021319;0.020791;0.021405;0.021147;0.021615;0.021224;0.021144;0.021043;0.020486;0.021933;0.021788;0.021288;0.021359;0.021342;0.020984;0.021195;0.021396;0.022271;0.021410;0.021879;0.021625;0.021560;0.022320;0.021028;0.021643;0.021791;0.021730;0.022135;0.021193;0.021956;0.021299;0.022147;0.021860;0.021817;0.021678;0.022610;0.021585;0.021504;0.021448;0.022051;0.022232;0.022260;0.021515;0.021998;0.022150;0.021716;0.021867;0.022041;0.021633;0.021340;0.021662;0.022254;0.021966;0.022488;0.022280;0.022921;0.022215;0.022487;0.022032
398.000000;0.020406;0.020387;0.020759;0.020197;0.021100;0.020109;0.021490;0.020387;0.020604;0.020759;0.020268;0.020990;0.021225;0.021361;0.020299;0.021152;0.020342;0.020837;0.021338;0.021508;0.020527;0.021628;0.020710;0.020933;0.021821;0.020689;0.021302;0.021216;0.020894;0.021309;0.021629;0.021093;0.021076;0.021665;0.021484;0.021704;0.021650;0.021650;0.021056;0.020840;0.020891;0.021199;0.021701;0.021512;0.021424;0.021651;0.021977;0.021632;0.021653;0.021200;0.021580;0.021466;0.021553;0.022045;0.021522;0.021445;0.021562;0.021816;0.022134;0.021564;0.021791
398.500000;0.019490;0.019423;0.019639;0.019118;0.019593;0.018997;0.020032;0.019463;0.019291;0.019869;0.019589;0.019862;0.019742;0.020321;0.019262;0.019749;0.019255;0.019950;0.020138;0.019804;0.019240;0.020574;0.019722;0.020089;0.020471;0.019726;0.020305;0.020235;0.019444;0.020018;0.020782;0.019699;0.020060;0.020022;0.020519;0.020192;0.020339;0.020280;0.020055;0.020057;0.019687;0.020003;0.020578;0.020198;0.020207;0.020396;0.021059;0.020575;0.020779;0.019900;0.020441;0.020759;0.020529;0.020847;0.020535;0.020328;0.020368;0.020275;0.020753;0.020254;0.020575
399.000000;0.018603;0.018539;0.018322;0.018015;0.017906;0.018212;0.018151;0.018718;0.017983;0.018594;0.018500;0.018821;0.018201;0.018770;0.018456;0.018079;0.018187;0.018905;0.018559;0.018311;0.018182;0.019210;0.018927;0.019203;0.019031;0.018524;0.019087;0.019371;0.018133;0.018845;0.019157;0.018403;0.018761;0.018344;0.019382;0.018186;0.018701;0.019056;0.018935;0.019207;0.018318;0.018878;0.019300;0.018909;0.018589;0.018917;0.019721;0.019095;0.019370;0.018728;0.018967;0.019340;0.019145;0.019193;0.019300;0.019324;0.019202;0.019079;0.018951;0.019165;0.018981
399.500000;0.017881;0.018007;0.017306;0.017288;0.017321;0.017591;0.017397;0.017985;0.017547;0.017306;0.017304;0.017751;0.017532;0.017900;0.017559;0.017706;0.017697;0.018086;0.017823;0.017941;0.017863;0.018351;0.018184;0.018180;0.018232;0.017684;0.018240;0.018747;0.017598;0.018139;0.018295;0.017711;0.017996;0.018021;0.018573;0.017337;0.018344;0.018248;0.018139;0.017955;0.017534;0.017988;0.018260;0.018083;0.017884;0.017975;0.018580;0.018190;0.018036;0.017958;0.018502;0.018039;0.018567;0.018029;0.018262;0.018237;0.018468;0.018518;0.018137;0.018689;0.017933
400.000000;0.017253;0.017566;0.016778;0.016805;0.017171;0.017018;0.017265;0.017258;0.017376;0.016574;0.016561;0.017055;0.017404;0.017522;0.016946;0.017710;0.017430;0.017552;0.017520;0.017897;0.017670;0.017916;0.017541;0.017433;0.017866;0.017187;0.017577;0.018136;0.017272;0.017553;0.017907;0.017369;0.017610;0.018109;0.018033;0.017168;0.018309;0.017844;0.017485;0.017058;0.017202;0.017490;0.017534;0.017523;0.017560;0.017460;0.017978;0.017710;0.017433;0.017451;0.018315;0.017295;0.018331;0.017430;0.017704;0.017460;0.017914;0.018189;0.017826;0.018415;0.017523
